N	t(c)	m(kg)	P(H)	V(m/s)	M	Cxa	alpha(grad)	theta_c(grad)	Cya_alpha	omega_z(1/s)	theta(grad)	y(m)	x(m)	g(m/s2)
1	0.000	1255.00	56000.0	10.000	0.0294	0.3000	0.00	85.00	0.2500	0.0000	85.00	0.00	0.00	9.8066
2	0.100	1253.00	56000.0	13.485	0.0396	0.3000	0.00	84.51	0.2500	0.0000	85.00	1.00	0.09	9.8066
3	0.200	1251.00	56000.0	16.977	0.0499	0.3000	0.00	84.11	0.2500	0.0000	85.00	2.34	0.22	9.8066
4	0.300	1249.00	56000.0	20.477	0.0602	0.3000	0.00	83.77	0.2500	0.0000	85.00	4.03	0.39	9.8066
5	0.400	1247.00	56000.0	23.985	0.0705	0.3000	0.00	83.47	0.2500	0.0000	85.00	6.06	0.61	9.8066
6	0.500	1245.00	56000.0	27.499	0.0808	0.3000	0.00	83.21	0.2500	0.0000	85.00	8.45	0.89	9.8066
7	0.600	1243.00	56000.0	31.021	0.0912	0.3000	0.00	82.97	0.2500	0.0000	85.00	11.18	1.21	9.8066
8	0.700	1241.00	56000.0	34.549	0.1015	0.3000	0.00	82.74	0.2500	0.0000	85.00	14.26	1.59	9.8066
9	0.800	1239.00	56000.0	38.085	0.1119	0.3000	0.00	82.54	0.2500	0.0000	85.00	17.68	2.03	9.8066
10	0.900	1237.00	56000.0	41.627	0.1224	0.3000	0.00	82.35	0.2500	0.0000	85.00	21.46	2.52	9.8066
11	1.000	1235.00	56000.0	45.177	0.1328	0.3000	0.00	82.17	0.2500	0.0000	85.00	25.58	3.08	9.8066
12	1.100	1233.00	56000.0	48.733	0.1433	0.3000	0.00	82.00	0.2500	0.0000	85.00	30.06	3.69	9.8066
13	1.200	1231.00	56000.0	52.295	0.1537	0.3000	0.00	81.84	0.2500	0.0000	85.00	34.89	4.37	9.8065
14	1.300	1229.00	56000.0	55.864	0.1642	0.3000	0.00	81.69	0.2500	0.0000	85.00	40.06	5.11	9.8065
15	1.400	1227.00	56000.0	59.440	0.1748	0.3000	0.00	81.54	0.2500	0.0000	85.00	45.59	5.92	9.8065
16	1.500	1225.00	56000.0	63.021	0.1853	0.3000	0.00	81.40	0.2500	0.0000	85.00	51.47	6.79	9.8065
17	1.600	1223.00	56000.0	66.610	0.1959	0.3000	0.00	81.27	0.2500	0.0000	85.00	57.70	7.74	9.8065
18	1.700	1221.00	56000.0	70.204	0.2065	0.3000	0.00	81.14	0.2500	0.0000	85.00	64.28	8.75	9.8065
19	1.800	1219.00	56000.0	73.804	0.2171	0.3000	0.00	81.02	0.2500	0.0000	85.00	71.22	9.83	9.8064
20	1.900	1217.00	56000.0	77.411	0.2277	0.3000	0.00	80.90	0.2500	0.0000	85.00	78.51	10.98	9.8064
21	2.000	1215.00	56000.0	81.023	0.2383	0.3000	0.00	80.78	0.2500	0.0000	85.00	86.15	12.21	9.8064
22	2.100	1213.00	56000.0	84.642	0.2490	0.3000	0.00	80.67	0.2500	0.0000	85.00	94.15	13.50	9.8064
23	2.200	1211.00	56000.0	88.266	0.2597	0.3000	0.00	80.56	0.2500	0.0000	85.00	102.50	14.88	9.8063
24	2.300	1209.00	56000.0	91.896	0.2704	0.3000	0.00	80.46	0.2500	0.0000	85.00	111.21	16.32	9.8063
25	2.400	1207.00	56000.0	95.531	0.2811	0.3000	0.00	80.36	0.2500	0.0000	85.00	120.27	17.85	9.8063
26	2.500	1205.00	56000.0	99.172	0.2919	0.3000	0.00	80.26	0.2500	0.0000	85.00	129.69	19.45	9.8062
27	2.600	1203.00	56000.0	102.819	0.3026	0.3000	0.00	80.16	0.2500	0.0000	85.00	139.47	21.12	9.8062
28	2.700	1201.00	56000.0	106.471	0.3134	0.3000	0.00	80.07	0.2500	0.0000	85.00	149.60	22.88	9.8062
29	2.800	1199.00	56000.0	110.128	0.3242	0.3000	0.00	79.98	0.2500	0.0000	85.00	160.08	24.72	9.8062
30	2.900	1197.00	56000.0	113.791	0.3350	0.3000	0.00	79.89	0.2500	0.0000	85.00	170.93	26.63	9.8061
31	3.000	1195.00	56000.0	117.459	0.3459	0.3000	0.00	79.80	0.2500	0.0000	85.00	182.13	28.63	9.8061
32	3.100	1193.00	56000.0	121.132	0.3567	0.3000	0.00	79.72	0.2500	0.0000	85.00	193.69	30.71	9.8061
33	3.200	1191.00	56000.0	124.809	0.3676	0.3000	0.00	79.64	0.2500	0.0000	85.00	205.61	32.87	9.8060
34	3.300	1189.00	56000.0	128.492	0.3785	0.3000	0.00	79.56	0.2500	0.0000	85.00	217.89	35.12	9.8060
35	3.400	1187.00	56000.0	132.180	0.3894	0.3000	0.00	79.48	0.2500	0.0000	85.00	230.52	37.44	9.8059
36	3.500	1185.00	56000.0	135.873	0.4004	0.3000	0.00	79.40	0.2500	0.0000	85.00	243.52	39.86	9.8059
37	3.600	1183.00	56000.0	139.570	0.4113	0.3000	0.00	79.32	0.2500	0.0000	85.00	256.88	42.36	9.8059
38	3.700	1181.00	56000.0	143.272	0.4223	0.3000	0.00	79.25	0.2500	0.0000	85.00	270.59	44.94	9.8058
39	3.800	1179.00	56000.0	146.978	0.4333	0.3000	0.00	79.18	0.2500	0.0000	85.00	284.67	47.62	9.8058
40	3.900	1177.00	56000.0	150.689	0.4443	0.3000	0.00	79.10	0.2500	0.0000	85.00	299.10	50.38	9.8057
41	4.000	1175.00	56000.0	154.405	0.4554	0.3000	0.00	79.03	0.2500	0.0000	85.00	313.90	53.23	9.8057
42	4.100	1173.00	56000.0	158.125	0.4664	0.3000	0.00	78.96	0.2500	0.0000	85.00	329.06	56.16	9.8056
43	4.200	1171.00	56000.0	161.849	0.4775	0.3000	0.00	78.90	0.2500	0.0000	85.00	344.58	59.19	9.8056
44	4.300	1169.00	56000.0	165.577	0.4886	0.3000	0.00	78.83	0.2500	0.0000	85.00	360.46	62.31	9.8055
45	4.400	1167.00	56000.0	169.309	0.4997	0.3000	0.00	78.76	0.2500	0.0000	85.00	376.70	65.52	9.8055
46	4.500	1165.00	56000.0	173.045	0.5108	0.3000	0.00	78.70	0.2500	0.0000	85.00	393.31	68.81	9.8054
47	4.600	1163.00	56000.0	176.786	0.5219	0.3000	0.00	78.63	0.2500	0.0000	85.00	410.28	72.21	9.8054
48	4.700	1161.00	56000.0	180.530	0.5331	0.3000	0.00	78.57	0.2500	0.0000	85.00	427.61	75.69	9.8053
49	4.800	1159.00	56000.0	184.278	0.5443	0.3000	0.00	78.51	0.2500	0.0000	85.00	445.31	79.27	9.8053
50	4.900	1157.00	56000.0	188.030	0.5555	0.3055	0.00	78.45	0.2500	0.0000	85.00	463.37	82.94	9.8052
51	5.000	1155.00	56000.0	191.783	0.5667	0.3167	0.00	78.39	0.2500	0.0000	85.00	481.79	86.70	9.8052
52	5.100	1153.00	56000.0	195.535	0.5779	0.3279	0.00	78.33	0.2500	0.0000	85.00	500.57	90.56	9.8051
53	5.200	1151.00	56000.0	199.285	0.5891	0.3391	0.00	78.27	0.2500	0.0000	85.00	519.72	94.52	9.8050
54	5.300	1149.00	56000.0	203.032	0.6003	0.3503	0.00	78.22	0.2500	0.0000	85.00	539.24	98.57	9.8050
55	5.400	1147.00	56000.0	206.778	0.6115	0.3615	0.00	78.16	0.2500	0.0000	85.00	559.11	102.71	9.8049
56	5.500	1145.00	56000.0	210.520	0.6227	0.3727	0.00	78.10	0.2500	0.0000	85.00	579.35	106.96	9.8049
57	5.600	1143.00	56000.0	214.258	0.6339	0.3839	0.00	78.05	0.2500	0.0000	85.00	599.95	111.30	9.8048
58	5.700	1141.00	56000.0	217.992	0.6451	0.3951	0.00	77.99	0.2500	0.0000	85.00	620.91	115.73	9.8047
59	5.800	1139.00	56000.0	221.722	0.6563	0.4063	0.00	77.94	0.2500	0.0000	85.00	642.23	120.27	9.8047
60	5.900	1137.00	56000.0	225.447	0.6675	0.4175	0.00	77.89	0.2500	0.0000	85.00	663.91	124.90	9.8046
61	6.000	1135.00	56000.0	229.166	0.6787	0.4287	0.00	77.84	0.2500	0.0000	85.00	685.96	129.63	9.8045
62	6.100	1133.00	56000.0	232.878	0.6899	0.4399	0.00	77.78	0.2500	0.0000	85.00	708.36	134.46	9.8045
63	6.200	1131.00	56000.0	236.585	0.7010	0.4510	0.00	77.73	0.2500	0.0000	85.00	731.12	139.39	9.8044
64	6.300	1129.00	56000.0	240.284	0.7122	0.4622	0.00	77.68	0.2500	0.0000	85.00	754.24	144.41	9.8043
65	6.400	1127.00	56000.0	243.975	0.7233	0.4733	0.00	77.63	0.2500	0.0000	85.00	777.71	149.54	9.8043
66	6.500	1125.00	56000.0	247.658	0.7344	0.4844	0.00	77.58	0.2500	0.0000	85.00	801.54	154.77	9.8042
67	6.600	1123.00	56000.0	251.333	0.7456	0.4956	0.00	77.53	0.2500	0.0000	85.00	825.73	160.09	9.8041
68	6.700	1121.00	56000.0	254.998	0.7566	0.5066	0.00	77.49	0.2500	0.0000	85.00	850.27	165.52	9.8040
69	6.800	1119.00	56000.0	258.654	0.7677	0.5177	0.00	77.44	0.2500	0.0000	85.00	875.17	171.04	9.8040
70	6.900	1117.00	56000.0	262.299	0.7787	0.5287	0.00	77.39	0.2500	0.0000	85.00	900.41	176.67	9.8039
71	7.000	1115.00	56000.0	265.933	0.7898	0.5398	0.00	77.34	0.2500	0.0000	85.00	926.01	182.39	9.8038
72	7.100	1113.00	56000.0	269.556	0.8008	0.5512	0.00	77.30	0.2496	0.0000	85.00	951.96	188.22	9.8037
73	7.200	1111.00	56000.0	273.167	0.8117	0.5676	0.00	77.25	0.2441	0.0000	85.00	978.25	194.15	9.8036
74	7.300	1109.00	56000.0	276.761	0.8227	0.5840	0.00	77.21	0.2387	0.0000	85.00	1004.90	200.18	9.8036
75	7.400	1107.00	56000.0	280.337	0.8336	0.6003	0.00	77.16	0.2332	0.0000	85.00	1031.89	206.30	9.8035
76	7.500	1105.00	56000.0	283.894	0.8444	0.6166	0.00	77.12	0.2278	0.0000	85.00	1059.22	212.53	9.8034
77	7.600	1103.00	56000.0	287.432	0.8552	0.6328	0.00	77.07	0.2224	0.0000	85.00	1086.89	218.86	9.8033
78	7.700	1101.00	56000.0	290.951	0.8660	0.6489	0.00	77.03	0.2170	0.0000	85.00	1114.91	225.29	9.8032
79	7.800	1099.00	56000.0	294.448	0.8767	0.6650	0.00	76.99	0.2117	0.0000	85.00	1143.26	231.82	9.8031
80	7.900	1097.00	56000.0	297.924	0.8873	0.6809	0.00	76.94	0.2064	0.0000	85.00	1171.95	238.45	9.8030
81	8.000	1095.00	56000.0	301.379	0.8979	0.6968	0.00	76.90	0.2011	0.0000	85.00	1200.97	245.18	9.8029
82	8.100	1093.00	56000.0	304.810	0.9084	0.7118	0.00	76.86	0.2084	0.0000	85.00	1230.32	252.02	9.8029
83	8.200	1091.00	56000.0	308.220	0.9189	0.7265	0.00	76.82	0.2189	0.0000	85.00	1260.01	258.95	9.8028
84	8.300	1089.00	56000.0	311.607	0.9293	0.7410	0.00	76.77	0.2293	0.0000	85.00	1290.02	265.97	9.8027
85	8.400	1087.00	56000.0	314.970	0.9397	0.7556	0.00	76.73	0.2397	0.0000	85.00	1320.35	273.10	9.8026
86	8.500	1085.00	56000.0	318.310	0.9500	0.7700	0.00	76.69	0.2500	0.0000	85.00	1351.01	280.33	9.8025
87	8.600	1083.00	56000.0	321.626	0.9602	0.7843	0.00	76.65	0.2602	0.0000	85.00	1381.98	287.66	9.8024
88	8.700	1081.00	56000.0	324.916	0.9704	0.7986	0.00	76.61	0.2704	0.0000	85.00	1413.28	295.08	9.8023
89	8.800	1079.00	56000.0	328.182	0.9805	0.8127	0.00	76.57	0.2805	0.0000	85.00	1444.89	302.61	9.8022
90	8.900	1077.00	56000.0	331.422	0.9906	0.8268	0.00	76.53	0.2906	0.0000	85.00	1476.81	310.23	9.8021
91	9.000	1075.00	56000.0	334.635	1.0005	0.8402	0.00	76.49	0.3001	0.0000	85.00	1509.04	317.95	9.8020
92	9.100	1073.00	56000.0	337.823	1.0105	0.8435	0.00	76.45	0.3017	0.0000	85.00	1541.58	325.76	9.8019
93	9.200	1071.00	56000.0	340.997	1.0203	0.8468	0.00	76.41	0.3034	0.0000	85.00	1574.42	333.68	9.8018
94	9.300	1069.00	56000.0	344.158	1.0302	0.8501	0.00	76.38	0.3050	0.0000	85.00	1607.56	341.69	9.8017
95	9.400	1067.00	56000.0	347.305	1.0400	0.8533	0.00	76.34	0.3067	0.0000	85.00	1641.01	349.79	9.8016
96	9.500	1065.00	56000.0	350.438	1.0498	0.8566	0.00	76.30	0.3083	0.0000	85.00	1674.76	358.00	9.8015
97	9.600	1063.00	56000.0	353.558	1.0596	0.8599	0.00	76.26	0.3099	0.0000	85.00	1708.81	366.30	9.8014
98	9.700	1061.00	56000.0	356.664	1.0693	0.8623	0.00	76.22	0.2960	0.0000	85.00	1743.15	374.69	9.8013
99	9.800	1059.00	56000.0	359.756	1.0790	0.8648	0.00	76.19	0.2814	0.0000	85.00	1777.79	383.19	9.8012
100	9.900	1057.00	56000.0	362.836	1.0887	0.8672	0.00	76.15	0.2669	0.0000	85.00	1812.73	391.78	9.8011
101	10.000	1055.00	56000.0	365.903	1.0984	0.8696	0.00	76.11	0.2524	0.0000	85.00	1847.95	400.46	9.8010
102	10.100	1053.00	56000.0	368.957	1.1080	0.8668	0.00	76.07	0.2500	0.0000	85.00	1883.47	409.25	9.8008
103	10.200	1051.00	56000.0	372.006	1.1176	0.8629	0.00	76.04	0.2500	0.0000	85.00	1919.29	418.13	9.8007
104	10.300	1049.00	56000.0	375.051	1.1273	0.8591	0.00	76.00	0.2500	0.0000	85.00	1955.39	427.10	9.8006
105	10.400	1047.00	56000.0	378.094	1.1369	0.8552	0.00	75.97	0.2500	0.0000	85.00	1991.78	436.17	9.8005
106	10.500	1045.00	56000.0	381.133	1.1465	0.8514	0.00	75.93	0.2500	0.0000	85.00	2028.46	445.34	9.8004
107	10.600	1043.00	56000.0	384.169	1.1562	0.8475	0.00	75.89	0.2500	0.0000	85.00	2065.43	454.61	9.8003
108	10.700	1041.00	56000.0	387.202	1.1658	0.8437	0.00	75.86	0.2500	0.0000	85.00	2102.69	463.97	9.8002
109	10.800	1039.00	56000.0	390.234	1.1755	0.8398	0.00	75.82	0.2500	0.0000	85.00	2140.23	473.43	9.8000
110	10.900	1037.00	56000.0	393.262	1.1851	0.8360	0.00	75.79	0.2500	0.0000	85.00	2178.07	482.99	9.7999
111	11.000	1035.00	56000.0	396.289	1.1948	0.8321	0.00	75.75	0.2500	0.0000	85.00	2216.19	492.65	9.7998
112	11.100	1033.00	56000.0	399.313	1.2045	0.8287	0.00	75.72	0.2500	0.0000	85.00	2254.60	502.40	9.7997
113	11.200	1031.00	56000.0	402.335	1.2141	0.8258	0.00	75.68	0.2500	0.0000	85.00	2293.30	512.25	9.7996
114	11.300	1029.00	56000.0	405.354	1.2238	0.8229	0.00	75.65	0.2500	0.0000	85.00	2332.28	522.20	9.7995
115	11.400	1027.00	56000.0	408.370	1.2335	0.8200	0.00	75.61	0.2500	0.0000	85.00	2371.55	532.25	9.7993
116	11.500	1025.00	56000.0	411.382	1.2432	0.8170	0.00	75.58	0.2500	0.0000	85.00	2411.11	542.39	9.7992
117	11.600	1023.00	56000.0	414.392	1.2529	0.8141	0.00	75.55	0.2500	0.0000	85.00	2450.95	552.64	9.7991
118	11.700	1021.00	56000.0	417.399	1.2626	0.8112	0.00	75.51	0.2500	0.0000	85.00	2491.08	562.98	9.7990
119	11.800	1019.00	56000.0	420.404	1.2723	0.8083	0.00	75.48	0.2500	0.0000	85.00	2531.49	573.43	9.7988
120	11.900	1017.00	56000.0	423.406	1.2820	0.8054	0.00	75.44	0.2500	0.0000	85.00	2572.19	583.97	9.7987
121	12.000	1015.00	56000.0	426.407	1.2917	0.8025	0.00	75.41	0.2500	0.0000	85.00	2613.17	594.61	9.7986
122	12.100	1013.00	56000.0	429.405	1.3014	0.7999	0.00	75.38	0.2500	0.0000	85.00	2654.44	605.35	9.7985
123	12.200	1011.00	56000.0	432.401	1.3111	0.7989	0.00	75.35	0.2500	0.0000	85.00	2695.99	616.19	9.7983
124	12.300	1009.00	56000.0	435.391	1.3209	0.7979	0.00	75.31	0.2500	0.0000	85.00	2737.82	627.13	9.7982
125	12.400	1007.00	56000.0	438.376	1.3306	0.7969	0.00	75.28	0.2500	0.0000	85.00	2779.94	638.17	9.7981
126	12.500	1005.00	56000.0	441.356	1.3403	0.7960	0.00	75.25	0.2500	0.0000	85.00	2822.33	649.31	9.7979
127	12.600	1003.00	56000.0	444.331	1.3501	0.7950	0.00	75.21	0.2500	0.0000	85.00	2865.02	660.55	9.7978
128	12.700	1001.00	56000.0	447.300	1.3598	0.7940	0.00	75.18	0.2500	0.0000	85.00	2907.98	671.88	9.7977
129	12.800	999.00	56000.0	450.265	1.3695	0.7930	0.00	75.15	0.2500	0.0000	85.00	2951.22	683.32	9.7976
130	12.900	997.00	56000.0	453.225	1.3792	0.7921	0.00	75.12	0.2500	0.0000	85.00	2994.74	694.86	9.7974
131	13.000	995.00	56000.0	456.180	1.3890	0.7911	0.00	75.09	0.2500	0.0000	85.00	3038.54	706.50	9.7973
132	13.100	993.00	56000.0	459.131	1.3987	0.7901	0.00	75.05	0.2500	0.0000	85.00	3082.63	718.24	9.7971
133	13.200	991.00	56000.0	462.077	1.4084	0.7880	0.00	75.02	0.2500	0.0000	85.00	3126.99	730.08	9.7970
134	13.300	989.00	56000.0	465.022	1.4182	0.7858	0.00	74.99	0.2500	0.0000	85.00	3171.62	742.02	9.7969
135	13.400	987.00	56000.0	467.965	1.4279	0.7835	0.00	74.96	0.2500	0.0000	85.00	3216.54	754.07	9.7967
136	13.500	985.00	56000.0	470.907	1.4377	0.7812	0.00	74.93	0.2500	0.0000	85.00	3261.73	766.21	9.7966
137	13.600	983.00	56000.0	473.849	1.4475	0.7789	0.00	74.90	0.2500	0.0000	85.00	3307.21	778.45	9.7965
138	13.700	981.00	56000.0	476.790	1.4573	0.7766	0.00	74.87	0.2500	0.0000	85.00	3352.95	790.80	9.7963
139	13.800	979.00	56000.0	479.730	1.4671	0.7743	0.00	74.84	0.2500	0.0000	85.00	3398.98	803.24	9.7962
140	13.900	977.00	56000.0	482.670	1.4769	0.7721	0.00	74.81	0.2500	0.0000	85.00	3445.28	815.79	9.7960
141	14.000	975.00	56000.0	485.610	1.4868	0.7698	0.00	74.78	0.2500	0.0000	85.00	3491.86	828.44	9.7959
142	14.100	973.00	56000.0	488.551	1.4966	0.7675	0.00	74.75	0.2500	0.0000	85.00	3538.72	841.19	9.7957
143	14.200	971.00	56000.0	491.491	1.5065	0.7652	0.00	74.72	0.2500	0.0000	85.00	3585.85	854.05	9.7956
144	14.300	969.00	56000.0	494.432	1.5164	0.7628	0.00	74.69	0.2500	0.0000	85.00	3633.26	867.00	9.7954
145	14.400	967.00	56000.0	497.374	1.5263	0.7605	0.00	74.66	0.2500	0.0000	85.00	3680.95	880.06	9.7953
146	14.500	965.00	56000.0	500.316	1.5362	0.7582	0.00	74.63	0.2500	0.0000	85.00	3728.92	893.23	9.7952
147	14.600	963.00	56000.0	503.260	1.5462	0.7559	0.00	74.60	0.2500	0.0000	85.00	3777.16	906.49	9.7950
148	14.700	961.00	56000.0	506.205	1.5562	0.7536	0.00	74.57	0.2500	0.0000	85.00	3825.67	919.86	9.7949
149	14.800	959.00	56000.0	509.151	1.5662	0.7512	0.00	74.54	0.2500	0.0000	85.00	3874.47	933.33	9.7947
150	14.900	957.00	56000.0	512.099	1.5762	0.7489	0.00	74.51	0.2500	0.0000	85.00	3923.54	946.90	9.7946
151	15.000	955.00	56000.0	515.049	1.5862	0.7465	0.00	74.48	0.2500	0.0000	85.00	3972.89	960.58	9.7944
152	15.100	953.00	56000.0	518.002	1.5963	0.7442	0.00	74.45	0.2500	0.0000	85.00	4022.52	974.37	9.7943
153	15.200	951.00	56000.0	520.956	1.6064	0.7418	0.00	74.42	0.2500	0.0000	85.00	4072.42	988.25	9.7941
154	15.300	949.00	56000.0	523.913	1.6165	0.7395	0.00	74.39	0.2500	0.0000	85.00	4122.60	1002.25	9.7939
155	15.400	947.00	56000.0	526.872	1.6267	0.7371	0.00	74.36	0.2500	0.0000	85.00	4173.06	1016.34	9.7938
156	15.500	945.00	56000.0	529.835	1.6369	0.7347	0.00	74.33	0.2500	0.0000	85.00	4223.80	1030.55	9.7936
157	15.600	943.00	56000.0	532.801	1.6471	0.7323	0.00	74.30	0.2500	0.0000	85.00	4274.81	1044.85	9.7935
158	15.700	941.00	56000.0	535.770	1.6573	0.7300	0.00	74.28	0.2500	0.0000	85.00	4326.11	1059.27	9.7933
159	15.800	939.00	56000.0	538.742	1.6676	0.7276	0.00	74.25	0.2500	0.0000	85.00	4377.68	1073.79	9.7932
160	15.900	937.00	56000.0	541.719	1.6779	0.7252	0.00	74.22	0.2500	0.0000	85.00	4429.53	1088.41	9.7930
161	16.000	935.00	56000.0	544.699	1.6882	0.7227	0.00	74.19	0.2500	0.0000	85.00	4481.66	1103.14	9.7928
162	16.100	933.00	56000.0	547.684	1.6986	0.7203	0.00	74.16	0.2500	0.0000	85.00	4534.07	1117.98	9.7927
163	16.200	931.00	56000.0	550.673	1.7090	0.7179	0.00	74.14	0.2500	0.0000	85.00	4586.76	1132.93	9.7925
164	16.300	929.00	56000.0	553.667	1.7194	0.7155	0.00	74.11	0.2500	0.0000	85.00	4639.73	1147.98	9.7924
165	16.400	927.00	56000.0	556.666	1.7299	0.7130	0.00	74.08	0.2500	0.0000	85.00	4692.98	1163.14	9.7922
166	16.500	925.00	56000.0	559.670	1.7404	0.7106	0.00	74.05	0.2500	0.0000	85.00	4746.51	1178.41	9.7920
167	16.600	923.00	56000.0	562.679	1.7509	0.7081	0.00	74.02	0.2500	0.0000	85.00	4800.32	1193.79	9.7919
168	16.700	921.00	56000.0	565.694	1.7615	0.7056	0.00	74.00	0.2500	0.0000	85.00	4854.42	1209.28	9.7917
169	16.800	919.00	56000.0	568.715	1.7722	0.7032	0.00	73.97	0.2500	0.0000	85.00	4908.80	1224.87	9.7915
170	16.900	917.00	56000.0	571.741	1.7828	0.7007	0.00	73.94	0.2500	0.0000	85.00	4963.46	1240.58	9.7914
171	17.000	915.00	56000.0	574.774	1.7935	0.6982	0.00	73.92	0.2500	0.0000	85.00	5018.40	1256.39	9.7912
172	17.100	913.00	56000.0	577.814	1.8043	0.6957	0.00	73.89	0.2500	0.0000	85.00	5073.63	1272.32	9.7910
173	17.200	911.00	56000.0	580.860	1.8151	0.6931	0.00	73.86	0.2500	0.0000	85.00	5129.14	1288.35	9.7908
174	17.300	909.00	56000.0	583.913	1.8259	0.6906	0.00	73.83	0.2500	0.0000	85.00	5184.94	1304.50	9.7907
175	17.400	907.00	56000.0	586.974	1.8368	0.6881	0.00	73.81	0.2500	0.0000	85.00	5241.02	1320.75	9.7905
176	17.500	905.00	56000.0	590.042	1.8477	0.6855	0.00	73.78	0.2500	0.0000	85.00	5297.39	1337.12	9.7903
177	17.600	903.00	56000.0	593.118	1.8587	0.6830	0.00	73.75	0.2500	0.0000	85.00	5354.04	1353.60	9.7902
178	17.700	901.00	56000.0	596.202	1.8697	0.6804	0.00	73.73	0.2500	0.0000	85.00	5410.99	1370.20	9.7900
179	17.800	899.00	56000.0	599.294	1.8808	0.6778	0.00	73.70	0.2500	0.0000	85.00	5468.22	1386.90	9.7898
180	17.900	897.00	56000.0	602.394	1.8919	0.6752	0.00	73.68	0.2500	0.0000	85.00	5525.74	1403.72	9.7896
181	18.000	895.00	56000.0	605.504	1.9031	0.6726	0.00	73.65	0.2500	0.0000	85.00	5583.55	1420.65	9.7894
182	18.100	893.00	56000.0	608.622	1.9144	0.6700	0.00	73.62	0.2500	0.0000	85.00	5641.65	1437.70	9.7893
183	18.200	891.00	56000.0	611.749	1.9256	0.6673	0.00	73.60	0.2500	0.0000	85.00	5700.05	1454.86	9.7891
184	18.300	889.00	56000.0	614.886	1.9370	0.6647	0.00	73.57	0.2500	0.0000	85.00	5758.73	1472.13	9.7889
185	18.400	887.00	56000.0	618.033	1.9484	0.6620	0.00	73.55	0.2500	0.0000	85.00	5817.71	1489.52	9.7887
186	18.500	885.00	56000.0	621.190	1.9598	0.6594	0.00	73.52	0.2500	0.0000	85.00	5876.98	1507.03	9.7885
187	18.600	883.00	56000.0	624.357	1.9714	0.6567	0.00	73.49	0.2500	0.0000	85.00	5936.55	1524.65	9.7884
188	18.700	881.00	56000.0	627.534	1.9829	0.6540	0.00	73.47	0.2500	0.0000	85.00	5996.41	1542.39	9.7882
189	18.800	879.00	56000.0	630.723	1.9946	0.6513	0.00	73.44	0.2500	0.0000	85.00	6056.57	1560.24	9.7880
190	18.900	877.00	56000.0	633.922	2.0063	0.6490	0.00	73.42	0.2500	0.0000	85.00	6117.03	1578.22	9.7878
191	19.000	875.00	56000.0	637.132	2.0180	0.6470	0.00	73.39	0.2500	0.0000	85.00	6177.78	1596.31	9.7876
192	19.100	873.00	56000.0	640.350	2.0299	0.6450	0.00	73.37	0.2500	0.0000	85.00	6238.84	1614.52	9.7874
193	19.200	871.00	56000.0	643.578	2.0417	0.6430	0.00	73.34	0.2500	0.0000	85.00	6300.19	1632.85	9.7872
194	19.300	869.00	56000.0	646.814	2.0537	0.6411	0.00	73.32	0.2500	0.0000	85.00	6361.85	1651.30	9.7871
195	19.400	867.00	56000.0	650.061	2.0656	0.6391	0.00	73.29	0.2500	0.0000	85.00	6423.81	1669.86	9.7869
196	19.500	865.00	56000.0	653.317	2.0777	0.6371	0.00	73.27	0.2500	0.0000	85.00	6486.07	1688.55	9.7867
197	19.600	863.00	56000.0	656.584	2.0898	0.6350	0.00	73.24	0.2500	0.0000	85.00	6548.64	1707.36	9.7865
198	19.700	861.00	56000.0	659.861	2.1020	0.6330	0.00	73.22	0.2500	0.0000	85.00	6611.51	1726.29	9.7863
199	19.800	859.00	56000.0	663.148	2.1142	0.6310	0.00	73.19	0.2500	0.0000	85.00	6674.68	1745.34	9.7861
200	19.900	857.00	56000.0	666.447	2.1265	0.6289	0.00	73.17	0.2500	0.0000	85.00	6738.17	1764.52	9.7859
201	20.000	855.00	56000.0	669.756	2.1389	0.6268	0.00	73.15	0.2500	0.0000	85.00	6801.96	1783.81	9.7857
202	20.100	853.00	56000.0	673.078	2.1513	0.6248	0.00	73.12	0.2500	0.0000	85.00	6866.06	1803.23	9.7855
203	20.200	851.00	56000.0	676.410	2.1639	0.6227	0.00	73.10	0.2500	0.0000	85.00	6930.46	1822.77	9.7853
204	20.300	849.00	56000.0	679.755	2.1764	0.6206	0.00	73.07	0.2500	0.0000	85.00	6995.18	1842.44	9.7851
205	20.400	847.00	56000.0	683.112	2.1891	0.6185	0.00	73.05	0.2500	0.0000	85.00	7060.21	1862.23	9.7849
206	20.500	845.00	56000.0	686.481	2.2018	0.6164	0.00	73.02	0.2500	0.0000	85.00	7125.56	1882.15	9.7847
207	20.600	843.00	56000.0	689.863	2.2146	0.6142	0.00	73.00	0.2500	0.0000	85.00	7191.21	1902.19	9.7845
208	20.700	841.00	56000.0	693.258	2.2275	0.6121	0.00	72.98	0.2500	0.0000	85.00	7257.19	1922.36	9.7843
209	20.800	839.00	56000.0	696.667	2.2404	0.6099	0.00	72.95	0.2500	0.0000	85.00	7323.47	1942.66	9.7841
210	20.900	837.00	56000.0	700.089	2.2535	0.6078	0.00	72.93	0.2500	0.0000	85.00	7390.08	1963.08	9.7839
211	21.000	835.00	56000.0	703.525	2.2666	0.6056	0.00	72.91	0.2500	0.0000	85.00	7457.00	1983.63	9.7837
212	21.100	833.00	56000.0	706.975	2.2798	0.6034	0.00	72.88	0.2500	0.0000	85.00	7524.25	2004.31	9.7835
213	21.200	831.00	56000.0	710.439	2.2930	0.6012	0.00	72.86	0.2500	0.0000	85.00	7591.82	2025.12	9.7833
214	21.300	829.00	56000.0	713.918	2.3064	0.5989	0.00	72.84	0.2500	0.0000	85.00	7659.70	2046.05	9.7831
215	21.400	827.00	56000.0	717.412	2.3198	0.5967	0.00	72.81	0.2500	0.0000	85.00	7727.92	2067.12	9.7828
216	21.500	825.00	56000.0	720.921	2.3333	0.5944	0.00	72.79	0.2500	0.0000	85.00	7796.45	2088.32	9.7826
217	21.600	823.00	56000.0	724.445	2.3470	0.5922	0.00	72.77	0.2500	0.0000	85.00	7865.32	2109.65	9.7824
218	21.700	821.00	56000.0	727.986	2.3607	0.5899	0.00	72.74	0.2500	0.0000	85.00	7934.51	2131.11	9.7822
219	21.800	819.00	56000.0	731.543	2.3745	0.5876	0.00	72.72	0.2500	0.0000	85.00	8004.03	2152.71	9.7820
220	21.900	817.00	56000.0	735.116	2.3883	0.5853	0.00	72.70	0.2500	0.0000	85.00	8073.89	2174.44	9.7818
221	22.000	815.00	56000.0	738.705	2.4023	0.5829	0.00	72.68	0.2500	0.0000	85.00	8144.07	2196.30	9.7816
222	22.100	813.00	56000.0	742.312	2.4164	0.5806	0.00	72.65	0.2500	0.0000	85.00	8214.59	2218.30	9.7814
223	22.200	811.00	56000.0	745.936	2.4306	0.5782	0.00	72.63	0.2500	0.0000	85.00	8285.45	2240.43	9.7811
224	22.300	809.00	56000.0	749.578	2.4449	0.5759	0.00	72.61	0.2500	0.0000	85.00	8356.64	2262.70	9.7809
225	22.400	807.00	56000.0	753.237	2.4592	0.5735	0.00	72.59	0.2500	0.0000	85.00	8428.17	2285.10	9.7807
226	22.500	805.00	56000.0	756.915	2.4737	0.5710	0.00	72.56	0.2500	0.0000	85.00	8500.04	2307.64	9.7805
227	22.600	803.00	56000.0	760.611	2.4883	0.5686	0.00	72.54	0.2500	0.0000	85.00	8572.25	2330.32	9.7803
228	22.700	801.00	56000.0	764.326	2.5030	0.5662	0.00	72.52	0.2500	0.0000	85.00	8644.81	2353.14	9.7800
229	22.800	799.00	56000.0	768.061	2.5178	0.5637	0.00	72.50	0.2500	0.0000	85.00	8717.71	2376.10	9.7798
230	22.900	797.00	56000.0	771.814	2.5327	0.5612	0.00	72.48	0.2500	0.0000	85.00	8790.96	2399.20	9.7796
231	23.000	795.00	56000.0	775.588	2.5477	0.5587	0.00	72.45	0.2500	0.0000	85.00	8864.56	2422.44	9.7794
232	23.100	793.00	56000.0	779.382	2.5628	0.5562	0.00	72.43	0.2500	0.0000	85.00	8938.51	2445.82	9.7791
233	23.200	791.00	56000.0	783.196	2.5781	0.5537	0.00	72.41	0.2500	0.0000	85.00	9012.82	2469.35	9.7789
234	23.300	789.00	56000.0	787.031	2.5934	0.5511	0.00	72.39	0.2500	0.0000	85.00	9087.47	2493.02	9.7787
235	23.400	787.00	56000.0	790.887	2.6089	0.5494	0.00	72.37	0.2500	0.0000	85.00	9162.49	2516.83	9.7784
236	23.500	785.00	56000.0	794.760	2.6245	0.5485	0.00	72.35	0.2500	0.0000	85.00	9237.86	2540.79	9.7782
237	23.600	783.00	56000.0	798.649	2.6402	0.5475	0.00	72.32	0.2500	0.0000	85.00	9313.59	2564.89	9.7780
238	23.700	781.00	56000.0	802.553	2.6559	0.5465	0.00	72.30	0.2500	0.0000	85.00	9389.69	2589.14	9.7777
239	23.800	779.00	56000.0	806.472	2.6718	0.5455	0.00	72.28	0.2500	0.0000	85.00	9466.15	2613.54	9.7775
240	23.900	777.00	56000.0	810.407	2.6878	0.5445	0.00	72.26	0.2500	0.0000	85.00	9542.97	2638.08	9.7773
241	24.000	775.00	56000.0	814.358	2.7039	0.5435	0.00	72.24	0.2500	0.0000	85.00	9620.16	2662.77	9.7770
242	24.100	773.00	56000.0	818.325	2.7201	0.5425	0.00	72.22	0.2500	0.0000	85.00	9697.71	2687.61	9.7768
243	24.200	771.00	56000.0	822.309	2.7364	0.5415	0.00	72.20	0.2500	0.0000	85.00	9775.63	2712.61	9.7766
244	24.300	769.00	56000.0	826.310	2.7528	0.5404	0.00	72.18	0.2500	0.0000	85.00	9853.93	2737.75	9.7763
245	24.400	767.00	56000.0	830.328	2.7694	0.5394	0.00	72.16	0.2500	0.0000	85.00	9932.59	2763.04	9.7761
246	24.500	765.00	56000.0	834.363	2.7860	0.5384	0.00	72.14	0.2500	0.0000	85.00	10011.63	2788.48	9.7758
247	24.600	763.00	56000.0	838.416	2.8028	0.5373	0.00	72.11	0.2500	0.0000	85.00	10091.04	2814.08	9.7756
248	24.700	761.00	56000.0	842.488	2.8197	0.5363	0.00	72.09	0.2500	0.0000	85.00	10170.83	2839.83	9.7753
249	24.800	759.00	56000.0	846.577	2.8367	0.5352	0.00	72.07	0.2500	0.0000	85.00	10251.00	2865.73	9.7751
250	24.900	757.00	56000.0	850.686	2.8538	0.5341	0.00	72.05	0.2500	0.0000	85.00	10331.55	2891.79	9.7749
251	25.000	755.00	56000.0	854.813	2.8711	0.5331	0.00	72.03	0.2500	0.0000	85.00	10412.48	2918.00	9.7746
252	25.100	753.00	56000.0	858.960	2.8884	0.5320	0.00	72.01	0.2500	0.0000	85.00	10493.79	2944.37	9.7744
253	25.200	751.00	56000.0	863.126	2.9060	0.5309	0.00	71.99	0.2500	0.0000	85.00	10575.49	2970.89	9.7741
254	25.300	749.00	56000.0	867.312	2.9236	0.5298	0.00	71.97	0.2500	0.0000	85.00	10657.57	2997.57	9.7738
255	25.400	747.00	56000.0	871.518	2.9414	0.5287	0.00	71.95	0.2500	0.0000	85.00	10740.05	3024.41	9.7736
256	25.500	745.00	56000.0	875.745	2.9593	0.5275	0.00	71.93	0.2500	0.0000	85.00	10822.91	3051.41	9.7733
257	25.600	743.00	56000.0	879.992	2.9773	0.5264	0.00	71.91	0.2500	0.0000	85.00	10906.17	3078.57	9.7731
258	25.700	741.00	56000.0	884.260	2.9955	0.5253	0.00	71.89	0.2500	0.0000	85.00	10989.82	3105.89	9.7728
259	25.800	739.00	56000.0	888.550	3.0113	0.5243	0.00	71.87	0.2500	0.0000	85.00	11073.87	3133.38	9.7726
260	25.900	737.00	56000.0	892.872	3.0260	0.5234	0.00	71.85	0.2500	0.0000	85.00	11158.31	3161.02	9.7723
261	26.000	735.00	56000.0	897.221	3.0407	0.5225	0.00	71.83	0.2500	0.0000	85.00	11243.16	3188.83	9.7721
262	26.100	733.00	56000.0	901.596	3.0555	0.5215	0.00	71.81	0.2500	0.0000	85.00	11328.41	3216.80	9.7718
263	26.200	731.00	56000.0	905.999	3.0705	0.5206	0.00	71.80	0.2500	0.0000	85.00	11414.06	3244.94	9.7715
264	26.300	729.00	56000.0	910.429	3.0855	0.5197	0.00	71.78	0.2500	0.0000	85.00	11500.13	3273.24	9.7713
265	26.400	727.00	56000.0	914.887	3.1006	0.5187	0.00	71.76	0.2500	0.0000	85.00	11586.61	3301.71	9.7710
266	26.500	725.00	56000.0	919.373	3.1158	0.5178	0.00	71.74	0.2500	0.0000	85.00	11673.50	3330.35	9.7707
267	26.600	723.00	56000.0	923.887	3.1311	0.5168	0.00	71.72	0.2500	0.0000	85.00	11760.80	3359.16	9.7705
268	26.700	721.00	56000.0	928.429	3.1465	0.5158	0.00	71.70	0.2500	0.0000	85.00	11848.53	3388.14	9.7702
269	26.800	719.00	56000.0	933.000	3.1620	0.5149	0.00	71.68	0.2500	0.0000	85.00	11936.68	3417.30	9.7699
270	26.900	717.00	56000.0	937.599	3.1776	0.5139	0.00	71.66	0.2500	0.0000	85.00	12025.25	3446.62	9.7697
271	27.000	715.00	56000.0	942.228	3.1932	0.5129	0.00	71.64	0.2500	0.0000	85.00	12114.25	3476.12	9.7694
272	27.100	713.00	56000.0	946.886	3.2090	0.5119	0.00	71.62	0.2500	0.0000	85.00	12203.67	3505.79	9.7691
273	27.200	711.00	56000.0	951.573	3.2249	0.5109	0.00	71.61	0.2500	0.0000	85.00	12293.53	3535.64	9.7688
274	27.300	709.00	56000.0	956.290	3.2409	0.5099	0.00	71.59	0.2500	0.0000	85.00	12383.83	3565.67	9.7686
275	27.400	707.00	56000.0	961.037	3.2570	0.5089	0.00	71.57	0.2500	0.0000	85.00	12474.56	3595.88	9.7683
276	27.500	705.00	56000.0	965.815	3.2732	0.5079	0.00	71.55	0.2500	0.0000	85.00	12565.74	3626.26	9.7680
277	27.600	703.00	56000.0	970.623	3.2895	0.5069	0.00	71.53	0.2500	0.0000	85.00	12657.35	3656.83	9.7677
278	27.700	701.00	56000.0	975.461	3.3059	0.5059	0.00	71.51	0.2500	0.0000	85.00	12749.42	3687.57	9.7674
279	27.800	699.00	56000.0	980.331	3.3224	0.5049	0.00	71.50	0.2500	0.0000	85.00	12841.93	3718.50	9.7671
280	27.900	697.00	56000.0	985.232	3.3390	0.5038	0.00	71.48	0.2500	0.0000	85.00	12934.90	3749.62	9.7669
281	28.000	695.00	56000.0	990.164	3.3557	0.5028	0.00	71.46	0.2500	0.0000	85.00	13028.32	3780.91	9.7666
282	28.100	693.00	56000.0	995.128	3.3725	0.5017	0.00	71.44	0.2500	0.0000	85.00	13122.19	3812.40	9.7663
283	28.200	691.00	56000.0	1000.124	3.3895	0.5007	0.00	71.42	0.2500	0.0000	85.00	13216.53	3844.07	9.7660
284	28.300	689.00	56000.0	1005.152	3.4065	0.4999	0.00	71.41	0.2500	0.0000	85.00	13311.33	3875.93	9.7657
285	28.400	687.00	56000.0	1010.211	3.4236	0.4995	0.00	71.39	0.2500	0.0000	85.00	13406.60	3907.98	9.7654
286	28.500	685.00	56000.0	1015.299	3.4409	0.4992	0.00	71.37	0.2500	0.0000	85.00	13502.34	3940.22	9.7651
287	28.600	683.00	56000.0	1020.418	3.4582	0.4989	0.00	71.35	0.2500	0.0000	85.00	13598.55	3972.66	9.7648
288	28.700	681.00	56000.0	1025.566	3.4757	0.4985	0.00	71.34	0.2500	0.0000	85.00	13695.23	4005.29	9.7645
289	28.800	679.00	56000.0	1030.745	3.4932	0.4982	0.00	71.32	0.2500	0.0000	85.00	13792.40	4038.11	9.7642
290	28.900	677.00	56000.0	1035.954	3.5109	0.4979	0.00	71.30	0.2500	0.0000	85.00	13890.04	4071.12	9.7639
291	29.000	675.00	56000.0	1041.194	3.5286	0.4975	0.00	71.28	0.2500	0.0000	85.00	13988.17	4104.34	9.7636
292	29.100	673.00	56000.0	1046.465	3.5465	0.4972	0.00	71.27	0.2500	0.0000	85.00	14086.78	4137.75	9.7633
293	29.200	671.00	56000.0	1051.768	3.5645	0.4968	0.00	71.25	0.2500	0.0000	85.00	14185.88	4171.36	9.7630
294	29.300	669.00	56000.0	1057.102	3.5826	0.4965	0.00	71.23	0.2500	0.0000	85.00	14285.48	4205.17	9.7627
295	29.400	667.00	56000.0	1062.467	3.6007	0.4961	0.00	71.21	0.2500	0.0000	85.00	14385.57	4239.18	9.7624
296	29.500	665.00	56000.0	1067.865	3.6190	0.4958	0.00	71.20	0.2500	0.0000	85.00	14486.15	4273.39	9.7621
297	29.600	663.00	56000.0	1073.295	3.6374	0.4954	0.00	71.18	0.2500	0.0000	85.00	14587.24	4307.81	9.7618
298	29.700	661.00	56000.0	1078.758	3.6559	0.4951	0.00	71.16	0.2500	0.0000	85.00	14688.83	4342.44	9.7615
299	29.800	659.00	56000.0	1084.254	3.6746	0.4947	0.00	71.15	0.2500	0.0000	85.00	14790.93	4377.26	9.7612
300	29.900	657.00	56000.0	1089.782	3.6933	0.4944	0.00	71.13	0.2500	0.0000	85.00	14893.54	4412.30	9.7609
301	30.000	655.00	56000.0	1095.344	3.7122	0.4940	0.00	71.11	0.2500	0.0000	85.00	14996.66	4447.55	9.7605
