N	t(c)	m(kg)	P(H)	V(m/s)	M	Cxa	alpha(grad)	theta_c(grad)	Cya_alpha	omega_z(1/s)	theta(grad)	y(m)	x(m)	g(m/s2)	x_dotc(m/s)	y_dotc(m/s)	V_dot(m/s2)
1	0.000	1255.00	56000.0	10.000	0.0294	0.3000	0.00	85.00	0.2500	0.0000	85.00	0.00	0.00	9.8066	0.872	9.962	34.849
2	0.100	1253.00	56000.0	13.485	0.0396	0.3000	0.49	84.51	0.2500	0.0000	85.00	1.00	0.09	9.8066	1.290	13.423	34.923
3	0.200	1251.00	56000.0	16.977	0.0499	0.3000	0.73	84.27	0.2500	0.0000	85.00	2.34	0.22	9.8066	1.694	16.892	34.993
4	0.300	1249.00	56000.0	20.477	0.0602	0.3000	0.86	84.14	0.2500	0.0000	85.00	4.03	0.39	9.8066	2.092	20.369	35.061
5	0.400	1247.00	56000.0	23.983	0.0705	0.3000	0.96	84.04	0.2500	0.0000	85.00	6.06	0.59	9.8066	2.488	23.853	35.128
6	0.500	1245.00	56000.0	27.495	0.0808	0.3000	1.02	83.98	0.2500	0.0000	85.00	8.45	0.84	9.8066	2.884	27.344	35.194
7	0.600	1243.00	56000.0	31.015	0.0912	0.3000	1.07	83.93	0.2500	0.0000	85.00	11.18	1.13	9.8066	3.278	30.841	35.260
8	0.700	1241.00	56000.0	34.541	0.1015	0.3000	1.10	83.90	0.2500	0.0000	85.00	14.27	1.46	9.8066	3.673	34.345	35.325
9	0.800	1239.00	56000.0	38.073	0.1119	0.3000	1.13	83.87	0.2500	0.0000	85.00	17.70	1.83	9.8066	4.067	37.856	35.389
10	0.900	1237.00	56000.0	41.612	0.1223	0.3000	1.16	83.84	0.2500	0.0000	85.00	21.49	2.23	9.8066	4.462	41.372	35.452
11	1.000	1235.00	56000.0	45.158	0.1327	0.3000	1.17	83.83	0.2500	0.0000	85.00	25.63	2.68	9.8066	4.857	44.896	35.515
12	1.100	1233.00	56000.0	48.709	0.1432	0.3000	1.19	83.81	0.2500	0.0000	85.00	30.12	3.17	9.8066	5.252	48.425	35.577
13	1.200	1231.00	56000.0	52.267	0.1537	0.3000	1.20	83.80	0.2500	0.0000	85.00	34.96	3.69	9.8065	5.648	51.961	35.638
14	1.300	1229.00	56000.0	55.831	0.1641	0.3000	1.21	83.79	0.2500	0.0000	85.00	40.15	4.26	9.8065	6.044	55.502	35.699
15	1.400	1227.00	56000.0	59.400	0.1746	0.3000	1.22	83.78	0.2500	0.0000	85.00	45.70	4.86	9.8065	6.440	59.050	35.759
16	1.500	1225.00	56000.0	62.976	0.1852	0.3000	1.23	83.77	0.2500	0.0000	85.00	51.61	5.50	9.8065	6.837	62.604	35.818
17	1.600	1223.00	56000.0	66.558	0.1957	0.3000	1.24	83.76	0.2500	0.0000	85.00	57.87	6.19	9.8065	7.234	66.164	35.877
18	1.700	1221.00	56000.0	70.146	0.2063	0.3000	1.25	83.75	0.2500	0.0000	85.00	64.49	6.91	9.8065	7.632	69.730	35.935
19	1.800	1219.00	56000.0	73.739	0.2169	0.3000	1.25	83.75	0.2500	0.0000	85.00	71.46	7.67	9.8064	8.030	73.301	35.992
20	1.900	1217.00	56000.0	77.339	0.2275	0.3000	1.26	83.74	0.2500	0.0000	85.00	78.79	8.48	9.8064	8.428	76.878	36.049
21	2.000	1215.00	56000.0	80.944	0.2381	0.3000	1.26	83.74	0.2500	0.0000	85.00	86.48	9.32	9.8064	8.827	80.461	36.104
22	2.100	1213.00	56000.0	84.554	0.2487	0.3000	1.26	83.74	0.2500	0.0000	85.00	94.52	10.20	9.8064	9.226	84.049	36.160
23	2.200	1211.00	56000.0	88.170	0.2594	0.3000	1.27	83.73	0.2500	0.0000	85.00	102.93	11.13	9.8063	9.625	87.643	36.214
24	2.300	1209.00	56000.0	91.791	0.2701	0.3000	1.27	83.73	0.2500	0.0000	85.00	111.69	12.09	9.8063	10.025	91.242	36.268
25	2.400	1207.00	56000.0	95.418	0.2808	0.3000	1.27	83.73	0.2500	0.0000	85.00	120.82	13.09	9.8063	10.425	94.847	36.321
26	2.500	1205.00	56000.0	99.050	0.2915	0.3000	1.27	83.73	0.2500	0.0000	85.00	130.30	14.13	9.8062	10.825	98.457	36.373
27	2.600	1203.00	56000.0	102.687	0.3022	0.3000	1.28	83.72	0.2500	0.0000	85.00	140.15	15.22	9.8062	11.226	102.072	36.424
28	2.700	1201.00	56000.0	106.330	0.3130	0.3000	1.28	83.72	0.2500	0.0000	85.00	150.35	16.34	9.8062	11.627	105.692	36.475
29	2.800	1199.00	56000.0	109.977	0.3238	0.3000	1.28	83.72	0.2500	0.0000	85.00	160.92	17.50	9.8062	12.029	109.318	36.525
30	2.900	1197.00	56000.0	113.630	0.3346	0.3000	1.28	83.72	0.2500	0.0000	85.00	171.85	18.70	9.8061	12.430	112.948	36.574
31	3.000	1195.00	56000.0	117.287	0.3454	0.3000	1.28	83.72	0.2500	0.0000	85.00	183.15	19.95	9.8061	12.832	116.583	36.623
32	3.100	1193.00	56000.0	120.950	0.3562	0.3000	1.28	83.72	0.2500	0.0000	85.00	194.81	21.23	9.8060	13.235	120.223	36.671
33	3.200	1191.00	56000.0	124.617	0.3671	0.3000	1.28	83.72	0.2500	0.0000	85.00	206.83	22.55	9.8060	13.637	123.868	36.718
34	3.300	1189.00	56000.0	128.288	0.3779	0.3000	1.28	83.72	0.2500	0.0000	85.00	219.22	23.92	9.8060	14.040	127.518	36.764
35	3.400	1187.00	56000.0	131.965	0.3888	0.3000	1.28	83.72	0.2500	0.0000	85.00	231.97	25.32	9.8059	14.443	131.172	36.810
36	3.500	1185.00	56000.0	135.646	0.3997	0.3000	1.28	83.72	0.2500	0.0000	85.00	245.09	26.77	9.8059	14.847	134.831	36.855
37	3.600	1183.00	56000.0	139.331	0.4106	0.3000	1.28	83.72	0.2500	0.0000	85.00	258.57	28.25	9.8059	15.251	138.494	36.899
38	3.700	1181.00	56000.0	143.021	0.4216	0.3000	1.28	83.72	0.2500	0.0000	85.00	272.42	29.78	9.8058	15.654	142.162	36.943
39	3.800	1179.00	56000.0	146.715	0.4325	0.3000	1.28	83.72	0.2500	0.0000	85.00	286.63	31.34	9.8058	16.058	145.834	36.985
40	3.900	1177.00	56000.0	150.414	0.4435	0.3000	1.28	83.72	0.2500	0.0000	85.00	301.22	32.95	9.8057	16.463	149.510	37.027
41	4.000	1175.00	56000.0	154.117	0.4545	0.3000	1.28	83.72	0.2500	0.0000	85.00	316.17	34.59	9.8057	16.867	153.191	37.069
42	4.100	1173.00	56000.0	157.824	0.4655	0.3000	1.28	83.72	0.2500	0.0000	85.00	331.49	36.28	9.8056	17.272	156.876	37.109
43	4.200	1171.00	56000.0	161.534	0.4766	0.3000	1.28	83.72	0.2500	0.0000	85.00	347.18	38.01	9.8056	17.677	160.564	37.149
44	4.300	1169.00	56000.0	165.249	0.4876	0.3000	1.28	83.72	0.2500	0.0000	85.00	363.23	39.77	9.8055	18.082	164.257	37.188
45	4.400	1167.00	56000.0	168.968	0.4987	0.3000	1.28	83.72	0.2500	0.0000	85.00	379.66	41.58	9.8055	18.487	167.954	37.227
46	4.500	1165.00	56000.0	172.691	0.5098	0.3000	1.28	83.72	0.2500	0.0000	85.00	396.45	43.43	9.8054	18.893	171.654	37.264
47	4.600	1163.00	56000.0	176.417	0.5209	0.3000	1.28	83.72	0.2500	0.0000	85.00	413.62	45.32	9.8054	19.298	175.359	37.301
48	4.700	1161.00	56000.0	180.147	0.5320	0.3000	1.28	83.72	0.2500	0.0000	85.00	431.15	47.25	9.8053	19.704	179.067	37.338
49	4.800	1159.00	56000.0	183.881	0.5431	0.3000	1.28	83.72	0.2500	0.0000	85.00	449.06	49.22	9.8053	20.110	182.778	37.373
50	4.900	1157.00	56000.0	187.618	0.5543	0.3043	1.28	83.72	0.2500	0.0000	85.00	467.34	51.23	9.8052	20.515	186.493	37.391
51	5.000	1155.00	56000.0	191.358	0.5654	0.3154	1.28	83.72	0.2500	0.0000	85.00	485.99	53.28	9.8052	20.921	190.210	37.376
52	5.100	1153.00	56000.0	195.095	0.5766	0.3266	1.28	83.72	0.2500	0.0000	85.00	505.01	55.38	9.8051	21.327	193.926	37.358
53	5.200	1151.00	56000.0	198.831	0.5878	0.3378	1.27	83.73	0.2500	0.0000	85.00	524.40	57.51	9.8050	21.732	197.640	37.335
54	5.300	1149.00	56000.0	202.564	0.5990	0.3490	1.27	83.73	0.2500	0.0000	85.00	544.17	59.68	9.8050	22.136	201.351	37.307
55	5.400	1147.00	56000.0	206.295	0.6101	0.3601	1.27	83.73	0.2500	0.0000	85.00	564.30	61.89	9.8049	22.540	205.060	37.275
56	5.500	1145.00	56000.0	210.023	0.6213	0.3713	1.27	83.73	0.2500	0.0000	85.00	584.81	64.15	9.8048	22.943	208.766	37.238
57	5.600	1143.00	56000.0	213.746	0.6325	0.3825	1.27	83.73	0.2500	0.0000	85.00	605.68	66.44	9.8048	23.345	212.468	37.196
58	5.700	1141.00	56000.0	217.466	0.6436	0.3936	1.27	83.73	0.2500	0.0000	85.00	626.93	68.78	9.8047	23.747	216.165	37.149
59	5.800	1139.00	56000.0	221.181	0.6548	0.4048	1.27	83.73	0.2500	0.0000	85.00	648.55	71.15	9.8046	24.148	219.859	37.098
60	5.900	1137.00	56000.0	224.891	0.6659	0.4159	1.27	83.73	0.2500	0.0000	85.00	670.53	73.57	9.8046	24.548	223.547	37.041
61	6.000	1135.00	56000.0	228.595	0.6771	0.4271	1.27	83.73	0.2500	0.0000	85.00	692.89	76.02	9.8045	24.947	227.229	36.980
62	6.100	1133.00	56000.0	232.293	0.6882	0.4382	1.26	83.74	0.2500	0.0000	85.00	715.61	78.52	9.8044	25.345	230.906	36.913
63	6.200	1131.00	56000.0	235.984	0.6993	0.4493	1.26	83.74	0.2500	0.0000	85.00	738.70	81.05	9.8044	25.742	234.576	36.842
64	6.300	1129.00	56000.0	239.668	0.7104	0.4604	1.26	83.74	0.2500	0.0000	85.00	762.16	83.63	9.8043	26.139	238.238	36.765
65	6.400	1127.00	56000.0	243.345	0.7215	0.4715	1.26	83.74	0.2500	0.0000	85.00	785.98	86.24	9.8042	26.534	241.894	36.683
66	6.500	1125.00	56000.0	247.013	0.7326	0.4826	1.26	83.74	0.2500	0.0000	85.00	810.17	88.89	9.8042	26.927	245.541	36.596
67	6.600	1123.00	56000.0	250.673	0.7437	0.4937	1.26	83.74	0.2500	0.0000	85.00	834.73	91.59	9.8041	27.320	249.179	36.504
68	6.700	1121.00	56000.0	254.323	0.7547	0.5047	1.26	83.74	0.2500	0.0000	85.00	859.64	94.32	9.8040	27.711	252.809	36.407
69	6.800	1119.00	56000.0	257.964	0.7657	0.5157	1.25	83.75	0.2500	0.0000	85.00	884.92	97.09	9.8039	28.101	256.428	36.304
70	6.900	1117.00	56000.0	261.594	0.7767	0.5267	1.25	83.75	0.2500	0.0000	85.00	910.57	99.90	9.8038	28.490	260.038	36.197
71	7.000	1115.00	56000.0	265.214	0.7877	0.5377	1.25	83.75	0.2500	0.0000	85.00	936.57	102.75	9.8038	28.877	263.637	36.084
72	7.100	1113.00	56000.0	268.822	0.7987	0.5487	1.25	83.75	0.2500	0.0000	85.00	962.94	105.63	9.8037	29.262	267.225	35.966
73	7.200	1111.00	56000.0	272.419	0.8096	0.5644	1.25	83.75	0.2452	0.0000	85.00	989.66	108.56	9.8036	29.646	270.801	35.802
74	7.300	1109.00	56000.0	275.999	0.8205	0.5808	1.25	83.75	0.2397	0.0000	85.00	1016.74	111.53	9.8035	30.028	274.361	35.625
75	7.400	1107.00	56000.0	279.561	0.8314	0.5971	1.24	83.76	0.2343	0.0000	85.00	1044.17	114.53	9.8034	30.408	277.903	35.441
76	7.500	1105.00	56000.0	283.106	0.8422	0.6133	1.24	83.76	0.2289	0.0000	85.00	1071.96	117.57	9.8033	30.785	281.427	35.250
77	7.600	1103.00	56000.0	286.631	0.8530	0.6294	1.24	83.76	0.2235	0.0000	85.00	1100.11	120.65	9.8033	31.161	284.932	35.053
78	7.700	1101.00	56000.0	290.136	0.8637	0.6455	1.24	83.76	0.2182	0.0000	85.00	1128.60	123.76	9.8032	31.534	288.417	34.849
79	7.800	1099.00	56000.0	293.621	0.8743	0.6615	1.24	83.76	0.2128	0.0000	85.00	1157.44	126.92	9.8031	31.904	291.882	34.638
80	7.900	1097.00	56000.0	297.085	0.8849	0.6774	1.24	83.76	0.2075	0.0000	85.00	1186.63	130.11	9.8030	32.273	295.326	34.421
81	8.000	1095.00	56000.0	300.527	0.8955	0.6933	1.23	83.77	0.2022	0.0000	85.00	1216.16	133.34	9.8029	32.638	298.749	34.198
82	8.100	1093.00	56000.0	303.946	0.9060	0.7084	1.23	83.77	0.2060	0.0000	85.00	1246.04	136.60	9.8028	33.001	302.150	33.974
83	8.200	1091.00	56000.0	307.344	0.9165	0.7230	1.23	83.77	0.2165	0.0000	85.00	1276.25	139.90	9.8027	33.362	305.528	33.750
84	8.300	1089.00	56000.0	310.719	0.9269	0.7376	1.23	83.77	0.2269	0.0000	85.00	1306.81	143.24	9.8026	33.719	308.884	33.521
85	8.400	1087.00	56000.0	314.071	0.9372	0.7521	1.23	83.77	0.2372	0.0000	85.00	1337.69	146.61	9.8025	34.073	312.217	33.286
86	8.500	1085.00	56000.0	317.400	0.9475	0.7664	1.23	83.77	0.2475	0.0000	85.00	1368.92	150.01	9.8024	34.425	315.527	33.046
87	8.600	1083.00	56000.0	320.704	0.9577	0.7807	1.22	83.78	0.2577	0.0000	85.00	1400.47	153.46	9.8023	34.773	318.813	32.800
88	8.700	1081.00	56000.0	323.984	0.9678	0.7950	1.22	83.78	0.2678	0.0000	85.00	1432.35	156.93	9.8022	35.118	322.075	32.550
89	8.800	1079.00	56000.0	327.239	0.9779	0.8091	1.22	83.78	0.2779	0.0000	85.00	1464.56	160.45	9.8021	35.459	325.312	32.296
90	8.900	1077.00	56000.0	330.469	0.9879	0.8231	1.22	83.78	0.2879	0.0000	85.00	1497.09	163.99	9.8020	35.798	328.524	32.037
91	9.000	1075.00	56000.0	333.672	0.9979	0.8371	1.22	83.78	0.2979	0.0000	85.00	1529.94	167.57	9.8019	36.133	331.710	31.773
92	9.100	1073.00	56000.0	336.850	1.0078	0.8426	1.21	83.79	0.3013	0.0000	85.00	1563.11	171.18	9.8018	36.464	334.870	31.613
93	9.200	1071.00	56000.0	340.011	1.0177	0.8459	1.21	83.79	0.3029	0.0000	85.00	1596.60	174.83	9.8017	36.794	338.014	31.480
94	9.300	1069.00	56000.0	343.159	1.0275	0.8492	1.21	83.79	0.3046	0.0000	85.00	1630.40	178.51	9.8016	37.121	341.145	31.345
95	9.400	1067.00	56000.0	346.294	1.0373	0.8524	1.21	83.79	0.3062	0.0000	85.00	1664.51	182.22	9.8015	37.447	344.263	31.210
96	9.500	1065.00	56000.0	349.414	1.0471	0.8557	1.21	83.79	0.3078	0.0000	85.00	1698.94	185.97	9.8014	37.771	347.367	31.073
97	9.600	1063.00	56000.0	352.522	1.0568	0.8589	1.20	83.80	0.3095	0.0000	85.00	1733.68	189.74	9.8013	38.094	350.458	30.936
98	9.700	1061.00	56000.0	355.615	1.0665	0.8616	1.20	83.80	0.3002	0.0000	85.00	1768.72	193.55	9.8012	38.414	353.535	30.806
99	9.800	1059.00	56000.0	358.696	1.0762	0.8640	1.20	83.80	0.2857	0.0000	85.00	1804.08	197.40	9.8011	38.733	356.599	30.678
100	9.900	1057.00	56000.0	361.764	1.0859	0.8665	1.20	83.80	0.2712	0.0000	85.00	1839.74	201.27	9.8010	39.051	359.650	30.551
101	10.000	1055.00	56000.0	364.819	1.0955	0.8689	1.19	83.81	0.2568	0.0000	85.00	1875.70	205.17	9.8009	39.367	362.689	30.422
102	10.100	1053.00	56000.0	367.861	1.1051	0.8680	1.19	83.81	0.2500	0.0000	85.00	1911.97	209.11	9.8008	39.683	365.714	30.344
103	10.200	1051.00	56000.0	370.895	1.1147	0.8641	1.19	83.81	0.2500	0.0000	85.00	1948.54	213.08	9.8006	39.997	368.733	30.310
104	10.300	1049.00	56000.0	373.927	1.1243	0.8603	1.19	83.81	0.2500	0.0000	85.00	1985.42	217.08	9.8005	40.311	371.747	30.279
105	10.400	1047.00	56000.0	376.954	1.1339	0.8564	1.19	83.81	0.2500	0.0000	85.00	2022.59	221.11	9.8004	40.624	374.759	30.249
106	10.500	1045.00	56000.0	379.979	1.1435	0.8526	1.18	83.82	0.2500	0.0000	85.00	2060.07	225.17	9.8003	40.937	377.768	30.221
107	10.600	1043.00	56000.0	383.001	1.1531	0.8488	1.18	83.82	0.2500	0.0000	85.00	2097.84	229.27	9.8002	41.249	380.774	30.195
108	10.700	1041.00	56000.0	386.021	1.1627	0.8449	1.18	83.82	0.2500	0.0000	85.00	2135.92	233.39	9.8001	41.561	383.777	30.170
109	10.800	1039.00	56000.0	389.038	1.1723	0.8411	1.18	83.82	0.2500	0.0000	85.00	2174.30	237.55	9.7999	41.872	386.778	30.148
110	10.900	1037.00	56000.0	392.053	1.1820	0.8372	1.18	83.82	0.2500	0.0000	85.00	2212.98	241.73	9.7998	42.182	389.777	30.127
111	11.000	1035.00	56000.0	395.065	1.1916	0.8334	1.17	83.83	0.2500	0.0000	85.00	2251.95	245.95	9.7997	42.492	392.774	30.108
112	11.100	1033.00	56000.0	398.076	1.2012	0.8296	1.17	83.83	0.2500	0.0000	85.00	2291.23	250.20	9.7996	42.802	395.769	30.089
113	11.200	1031.00	56000.0	401.085	1.2109	0.8267	1.17	83.83	0.2500	0.0000	85.00	2330.81	254.48	9.7995	43.111	398.762	30.058
114	11.300	1029.00	56000.0	404.091	1.2205	0.8238	1.17	83.83	0.2500	0.0000	85.00	2370.68	258.79	9.7993	43.419	401.752	30.027
115	11.400	1027.00	56000.0	407.094	1.2302	0.8209	1.17	83.83	0.2500	0.0000	85.00	2410.86	263.13	9.7992	43.727	404.738	29.999
116	11.500	1025.00	56000.0	410.094	1.2399	0.8180	1.16	83.84	0.2500	0.0000	85.00	2451.33	267.51	9.7991	44.034	407.723	29.972
117	11.600	1023.00	56000.0	413.091	1.2495	0.8151	1.16	83.84	0.2500	0.0000	85.00	2492.10	271.91	9.7990	44.341	410.704	29.947
118	11.700	1021.00	56000.0	416.085	1.2592	0.8122	1.16	83.84	0.2500	0.0000	85.00	2533.18	276.34	9.7988	44.647	413.683	29.923
119	11.800	1019.00	56000.0	419.078	1.2689	0.8093	1.16	83.84	0.2500	0.0000	85.00	2574.54	280.81	9.7987	44.953	416.660	29.901
120	11.900	1017.00	56000.0	422.068	1.2786	0.8064	1.16	83.84	0.2500	0.0000	85.00	2616.21	285.30	9.7986	45.258	419.634	29.881
121	12.000	1015.00	56000.0	425.056	1.2883	0.8035	1.15	83.85	0.2500	0.0000	85.00	2658.17	289.83	9.7985	45.563	422.607	29.863
122	12.100	1013.00	56000.0	428.042	1.2980	0.8006	1.15	83.85	0.2500	0.0000	85.00	2700.43	294.39	9.7983	45.868	425.578	29.847
123	12.200	1011.00	56000.0	431.027	1.3077	0.7992	1.15	83.85	0.2500	0.0000	85.00	2742.99	298.97	9.7982	46.171	428.547	29.802
124	12.300	1009.00	56000.0	434.007	1.3174	0.7983	1.15	83.85	0.2500	0.0000	85.00	2785.85	303.59	9.7981	46.475	431.512	29.750
125	12.400	1007.00	56000.0	436.982	1.3272	0.7973	1.15	83.85	0.2500	0.0000	85.00	2829.00	308.24	9.7979	46.777	434.471	29.699
126	12.500	1005.00	56000.0	439.952	1.3369	0.7963	1.14	83.86	0.2500	0.0000	85.00	2872.44	312.92	9.7978	47.078	437.426	29.650
127	12.600	1003.00	56000.0	442.917	1.3466	0.7953	1.14	83.86	0.2500	0.0000	85.00	2916.19	317.62	9.7977	47.379	440.376	29.602
128	12.700	1001.00	56000.0	445.877	1.3563	0.7944	1.14	83.86	0.2500	0.0000	85.00	2960.22	322.36	9.7975	47.679	443.321	29.555
129	12.800	999.00	56000.0	448.833	1.3660	0.7934	1.14	83.86	0.2500	0.0000	85.00	3004.56	327.13	9.7974	47.978	446.261	29.510
130	12.900	997.00	56000.0	451.784	1.3758	0.7924	1.13	83.87	0.2500	0.0000	85.00	3049.18	331.93	9.7972	48.277	449.197	29.465
131	13.000	995.00	56000.0	454.730	1.3855	0.7915	1.13	83.87	0.2500	0.0000	85.00	3094.10	336.76	9.7971	48.575	452.129	29.423
132	13.100	993.00	56000.0	457.673	1.3952	0.7905	1.13	83.87	0.2500	0.0000	85.00	3139.32	341.61	9.7970	48.872	455.056	29.381
133	13.200	991.00	56000.0	460.611	1.4049	0.7888	1.13	83.87	0.2500	0.0000	85.00	3184.82	346.50	9.7968	49.168	457.979	29.356
134	13.300	989.00	56000.0	463.546	1.4147	0.7866	1.13	83.87	0.2500	0.0000	85.00	3230.62	351.42	9.7967	49.464	460.900	29.346
135	13.400	987.00	56000.0	466.481	1.4244	0.7843	1.12	83.88	0.2500	0.0000	85.00	3276.71	356.36	9.7965	49.759	463.819	29.338
136	13.500	985.00	56000.0	469.415	1.4342	0.7820	1.12	83.88	0.2500	0.0000	85.00	3323.09	361.34	9.7964	50.055	466.738	29.332
137	13.600	983.00	56000.0	472.348	1.4440	0.7797	1.12	83.88	0.2500	0.0000	85.00	3369.76	366.34	9.7963	50.349	469.657	29.328
138	13.700	981.00	56000.0	475.281	1.4538	0.7774	1.12	83.88	0.2500	0.0000	85.00	3416.73	371.38	9.7961	50.644	472.575	29.326
139	13.800	979.00	56000.0	478.213	1.4636	0.7752	1.11	83.89	0.2500	0.0000	85.00	3463.99	376.44	9.7960	50.938	475.493	29.325
140	13.900	977.00	56000.0	481.146	1.4734	0.7729	1.11	83.89	0.2500	0.0000	85.00	3511.54	381.54	9.7958	51.232	478.410	29.327
141	14.000	975.00	56000.0	484.079	1.4833	0.7706	1.11	83.89	0.2500	0.0000	85.00	3559.38	386.66	9.7957	51.526	481.328	29.330
142	14.100	973.00	56000.0	487.012	1.4932	0.7683	1.11	83.89	0.2500	0.0000	85.00	3607.51	391.81	9.7955	51.820	484.247	29.336
143	14.200	971.00	56000.0	489.945	1.5030	0.7660	1.11	83.89	0.2500	0.0000	85.00	3655.94	397.00	9.7954	52.113	487.166	29.343
144	14.300	969.00	56000.0	492.880	1.5130	0.7636	1.10	83.90	0.2500	0.0000	85.00	3704.65	402.21	9.7952	52.407	490.085	29.353
145	14.400	967.00	56000.0	495.815	1.5229	0.7613	1.10	83.90	0.2500	0.0000	85.00	3753.66	407.45	9.7951	52.700	493.006	29.364
146	14.500	965.00	56000.0	498.751	1.5328	0.7590	1.10	83.90	0.2500	0.0000	85.00	3802.96	412.72	9.7949	52.993	495.928	29.378
147	14.600	963.00	56000.0	501.689	1.5428	0.7567	1.10	83.90	0.2500	0.0000	85.00	3852.55	418.02	9.7948	53.286	498.851	29.393
148	14.700	961.00	56000.0	504.628	1.5528	0.7543	1.09	83.91	0.2500	0.0000	85.00	3902.44	423.35	9.7946	53.579	501.776	29.411
149	14.800	959.00	56000.0	507.569	1.5628	0.7520	1.09	83.91	0.2500	0.0000	85.00	3952.62	428.70	9.7945	53.871	504.703	29.431
150	14.900	957.00	56000.0	510.513	1.5729	0.7497	1.09	83.91	0.2500	0.0000	85.00	4003.09	434.09	9.7943	54.164	507.631	29.452
151	15.000	955.00	56000.0	513.458	1.5829	0.7473	1.09	83.91	0.2500	0.0000	85.00	4053.85	439.51	9.7942	54.457	510.562	29.476
152	15.100	953.00	56000.0	516.405	1.5930	0.7450	1.09	83.91	0.2500	0.0000	85.00	4104.91	444.95	9.7940	54.750	513.495	29.502
153	15.200	951.00	56000.0	519.356	1.6031	0.7426	1.08	83.92	0.2500	0.0000	85.00	4156.26	450.43	9.7938	55.043	516.431	29.530
154	15.300	949.00	56000.0	522.309	1.6133	0.7402	1.08	83.92	0.2500	0.0000	85.00	4207.90	455.93	9.7937	55.335	519.369	29.560
155	15.400	947.00	56000.0	525.265	1.6235	0.7379	1.08	83.92	0.2500	0.0000	85.00	4259.84	461.47	9.7935	55.628	522.311	29.593
156	15.500	945.00	56000.0	528.224	1.6337	0.7355	1.08	83.92	0.2500	0.0000	85.00	4312.07	467.03	9.7934	55.922	525.255	29.627
157	15.600	943.00	56000.0	531.187	1.6439	0.7331	1.07	83.93	0.2500	0.0000	85.00	4364.59	472.62	9.7932	56.215	528.204	29.664
158	15.700	941.00	56000.0	534.153	1.6542	0.7307	1.07	83.93	0.2500	0.0000	85.00	4417.41	478.24	9.7930	56.508	531.156	29.703
159	15.800	939.00	56000.0	537.123	1.6645	0.7283	1.07	83.93	0.2500	0.0000	85.00	4470.53	483.89	9.7929	56.802	534.112	29.744
160	15.900	937.00	56000.0	540.098	1.6748	0.7259	1.07	83.93	0.2500	0.0000	85.00	4523.94	489.57	9.7927	57.096	537.071	29.788
161	16.000	935.00	56000.0	543.077	1.6852	0.7234	1.07	83.93	0.2500	0.0000	85.00	4577.65	495.28	9.7925	57.390	540.036	29.833
162	16.100	933.00	56000.0	546.060	1.6956	0.7210	1.06	83.94	0.2500	0.0000	85.00	4631.65	501.02	9.7924	57.684	543.005	29.881
163	16.200	931.00	56000.0	549.048	1.7061	0.7186	1.06	83.94	0.2500	0.0000	85.00	4685.95	506.79	9.7922	57.978	545.978	29.932
164	16.300	929.00	56000.0	552.041	1.7166	0.7161	1.06	83.94	0.2500	0.0000	85.00	4740.55	512.59	9.7920	58.273	548.957	29.984
165	16.400	927.00	56000.0	555.040	1.7271	0.7137	1.06	83.94	0.2500	0.0000	85.00	4795.44	518.41	9.7919	58.568	551.941	30.039
166	16.500	925.00	56000.0	558.044	1.7376	0.7112	1.05	83.95	0.2500	0.0000	85.00	4850.64	524.27	9.7917	58.864	554.930	30.096
167	16.600	923.00	56000.0	561.053	1.7482	0.7087	1.05	83.95	0.2500	0.0000	85.00	4906.13	530.16	9.7915	59.160	557.926	30.156
168	16.700	921.00	56000.0	564.069	1.7589	0.7063	1.05	83.95	0.2500	0.0000	85.00	4961.92	536.07	9.7914	59.456	560.927	30.218
169	16.800	919.00	56000.0	567.091	1.7695	0.7038	1.05	83.95	0.2500	0.0000	85.00	5018.02	542.02	9.7912	59.753	563.934	30.282
170	16.900	917.00	56000.0	570.119	1.7803	0.7013	1.05	83.95	0.2500	0.0000	85.00	5074.41	547.99	9.7910	60.050	566.947	30.349
171	17.000	915.00	56000.0	573.154	1.7910	0.6988	1.04	83.96	0.2500	0.0000	85.00	5131.10	554.00	9.7908	60.348	569.968	30.418
172	17.100	913.00	56000.0	576.195	1.8019	0.6962	1.04	83.96	0.2500	0.0000	85.00	5188.10	560.03	9.7907	60.646	572.995	30.489
173	17.200	911.00	56000.0	579.244	1.8127	0.6937	1.04	83.96	0.2500	0.0000	85.00	5245.40	566.10	9.7905	60.944	576.029	30.563
174	17.300	909.00	56000.0	582.301	1.8236	0.6912	1.04	83.96	0.2500	0.0000	85.00	5303.00	572.19	9.7903	61.244	579.071	30.640
175	17.400	907.00	56000.0	585.365	1.8346	0.6886	1.04	83.96	0.2500	0.0000	85.00	5360.91	578.32	9.7901	61.543	582.121	30.719
176	17.500	905.00	56000.0	588.437	1.8456	0.6860	1.03	83.97	0.2500	0.0000	85.00	5419.12	584.47	9.7900	61.844	585.178	30.800
177	17.600	903.00	56000.0	591.517	1.8566	0.6835	1.03	83.97	0.2500	0.0000	85.00	5477.64	590.66	9.7898	62.145	588.243	30.884
178	17.700	901.00	56000.0	594.605	1.8677	0.6809	1.03	83.97	0.2500	0.0000	85.00	5536.47	596.87	9.7896	62.447	591.317	30.971
179	17.800	899.00	56000.0	597.702	1.8789	0.6783	1.03	83.97	0.2500	0.0000	85.00	5595.60	603.12	9.7894	62.749	594.399	31.060
180	17.900	897.00	56000.0	600.808	1.8901	0.6756	1.02	83.98	0.2500	0.0000	85.00	5655.04	609.39	9.7892	63.052	597.490	31.151
181	18.000	895.00	56000.0	603.923	1.9014	0.6730	1.02	83.98	0.2500	0.0000	85.00	5714.79	615.70	9.7890	63.356	600.591	31.246
182	18.100	893.00	56000.0	607.048	1.9127	0.6704	1.02	83.98	0.2500	0.0000	85.00	5774.85	622.03	9.7889	63.661	603.701	31.342
183	18.200	891.00	56000.0	610.182	1.9241	0.6677	1.02	83.98	0.2500	0.0000	85.00	5835.22	628.40	9.7887	63.966	606.820	31.442
184	18.300	889.00	56000.0	613.326	1.9355	0.6650	1.02	83.98	0.2500	0.0000	85.00	5895.90	634.79	9.7885	64.272	609.949	31.544
185	18.400	887.00	56000.0	616.481	1.9470	0.6624	1.01	83.99	0.2500	0.0000	85.00	5956.89	641.22	9.7883	64.579	613.089	31.649
186	18.500	885.00	56000.0	619.645	1.9586	0.6597	1.01	83.99	0.2500	0.0000	85.00	6018.20	647.68	9.7881	64.887	616.239	31.756
187	18.600	883.00	56000.0	622.821	1.9702	0.6570	1.01	83.99	0.2500	0.0000	85.00	6079.82	654.17	9.7879	65.196	619.399	31.866
188	18.700	881.00	56000.0	626.008	1.9819	0.6542	1.01	83.99	0.2500	0.0000	85.00	6141.76	660.69	9.7877	65.506	622.571	31.979
189	18.800	879.00	56000.0	629.206	1.9936	0.6515	1.00	84.00	0.2500	0.0000	85.00	6204.02	667.24	9.7875	65.817	625.754	32.095
190	18.900	877.00	56000.0	632.415	2.0054	0.6491	1.00	84.00	0.2500	0.0000	85.00	6266.60	673.82	9.7873	66.128	628.948	32.201
191	19.000	875.00	56000.0	635.635	2.0173	0.6471	1.00	84.00	0.2500	0.0000	85.00	6329.49	680.43	9.7871	66.441	632.153	32.295
192	19.100	873.00	56000.0	638.865	2.0292	0.6451	1.00	84.00	0.2500	0.0000	85.00	6392.71	687.08	9.7870	66.754	635.367	32.392
193	19.200	871.00	56000.0	642.104	2.0412	0.6431	1.00	84.00	0.2500	0.0000	85.00	6456.24	693.75	9.7868	67.069	638.591	32.491
194	19.300	869.00	56000.0	645.353	2.0533	0.6411	0.99	84.01	0.2500	0.0000	85.00	6520.10	700.46	9.7866	67.384	641.825	32.593
195	19.400	867.00	56000.0	648.612	2.0654	0.6391	0.99	84.01	0.2500	0.0000	85.00	6584.29	707.20	9.7864	67.699	645.069	32.697
196	19.500	865.00	56000.0	651.882	2.0776	0.6371	0.99	84.01	0.2500	0.0000	85.00	6648.79	713.97	9.7862	68.016	648.324	32.804
197	19.600	863.00	56000.0	655.162	2.0898	0.6350	0.99	84.01	0.2500	0.0000	85.00	6713.63	720.77	9.7860	68.334	651.589	32.914
198	19.700	861.00	56000.0	658.454	2.1022	0.6330	0.98	84.02	0.2500	0.0000	85.00	6778.78	727.60	9.7858	68.652	654.865	33.026
199	19.800	859.00	56000.0	661.756	2.1145	0.6309	0.98	84.02	0.2500	0.0000	85.00	6844.27	734.47	9.7856	68.972	658.152	33.141
200	19.900	857.00	56000.0	665.070	2.1270	0.6288	0.98	84.02	0.2500	0.0000	85.00	6910.09	741.36	9.7854	69.292	661.451	33.258
201	20.000	855.00	56000.0	668.396	2.1395	0.6267	0.98	84.02	0.2500	0.0000	85.00	6976.23	748.29	9.7852	69.614	664.761	33.378
202	20.100	853.00	56000.0	671.734	2.1521	0.6246	0.98	84.02	0.2500	0.0000	85.00	7042.71	755.26	9.7850	69.936	668.083	33.501
203	20.200	851.00	56000.0	675.084	2.1648	0.6225	0.97	84.03	0.2500	0.0000	85.00	7109.52	762.25	9.7848	70.260	671.418	33.626
204	20.300	849.00	56000.0	678.447	2.1775	0.6204	0.97	84.03	0.2500	0.0000	85.00	7176.66	769.28	9.7845	70.584	674.765	33.754
205	20.400	847.00	56000.0	681.822	2.1903	0.6183	0.97	84.03	0.2500	0.0000	85.00	7244.13	776.33	9.7843	70.910	678.125	33.885
206	20.500	845.00	56000.0	685.210	2.2032	0.6161	0.97	84.03	0.2500	0.0000	85.00	7311.95	783.42	9.7841	71.237	681.497	34.018
207	20.600	843.00	56000.0	688.612	2.2162	0.6140	0.97	84.03	0.2500	0.0000	85.00	7380.10	790.55	9.7839	71.565	684.883	34.155
208	20.700	841.00	56000.0	692.028	2.2293	0.6118	0.96	84.04	0.2500	0.0000	85.00	7448.58	797.70	9.7837	71.894	688.283	34.294
209	20.800	839.00	56000.0	695.457	2.2424	0.6096	0.96	84.04	0.2500	0.0000	85.00	7517.41	804.89	9.7835	72.225	691.697	34.436
210	20.900	837.00	56000.0	698.901	2.2556	0.6074	0.96	84.04	0.2500	0.0000	85.00	7586.58	812.12	9.7833	72.557	695.124	34.581
211	21.000	835.00	56000.0	702.359	2.2689	0.6052	0.96	84.04	0.2500	0.0000	85.00	7656.09	819.37	9.7831	72.890	698.566	34.728
212	21.100	833.00	56000.0	705.832	2.2823	0.6029	0.95	84.05	0.2500	0.0000	85.00	7725.95	826.66	9.7829	73.224	702.023	34.879
213	21.200	831.00	56000.0	709.319	2.2958	0.6007	0.95	84.05	0.2500	0.0000	85.00	7796.15	833.98	9.7826	73.560	705.495	35.032
214	21.300	829.00	56000.0	712.823	2.3093	0.5984	0.95	84.05	0.2500	0.0000	85.00	7866.70	841.34	9.7824	73.897	708.982	35.188
215	21.400	827.00	56000.0	716.341	2.3230	0.5962	0.95	84.05	0.2500	0.0000	85.00	7937.60	848.73	9.7822	74.235	712.485	35.347
216	21.500	825.00	56000.0	719.876	2.3367	0.5939	0.95	84.05	0.2500	0.0000	85.00	8008.85	856.15	9.7820	74.575	716.003	35.509
217	21.600	823.00	56000.0	723.427	2.3506	0.5916	0.94	84.06	0.2500	0.0000	85.00	8080.45	863.61	9.7818	74.917	719.538	35.674
218	21.700	821.00	56000.0	726.995	2.3645	0.5892	0.94	84.06	0.2500	0.0000	85.00	8152.40	871.10	9.7815	75.260	723.089	35.843
219	21.800	819.00	56000.0	730.579	2.3785	0.5869	0.94	84.06	0.2500	0.0000	85.00	8224.71	878.63	9.7813	75.604	726.656	36.014
220	21.900	817.00	56000.0	734.180	2.3927	0.5846	0.94	84.06	0.2500	0.0000	85.00	8297.38	886.19	9.7811	75.950	730.241	36.188
221	22.000	815.00	56000.0	737.799	2.4069	0.5822	0.94	84.06	0.2500	0.0000	85.00	8370.40	893.78	9.7809	76.297	733.843	36.365
222	22.100	813.00	56000.0	741.435	2.4212	0.5798	0.93	84.07	0.2500	0.0000	85.00	8443.79	901.41	9.7806	76.647	737.463	36.545
223	22.200	811.00	56000.0	745.090	2.4357	0.5774	0.93	84.07	0.2500	0.0000	85.00	8517.53	909.08	9.7804	76.997	741.101	36.729
224	22.300	809.00	56000.0	748.763	2.4502	0.5750	0.93	84.07	0.2500	0.0000	85.00	8591.64	916.78	9.7802	77.350	744.757	36.915
225	22.400	807.00	56000.0	752.454	2.4648	0.5725	0.93	84.07	0.2500	0.0000	85.00	8666.12	924.51	9.7800	77.704	748.431	37.105
226	22.500	805.00	56000.0	756.165	2.4796	0.5701	0.93	84.07	0.2500	0.0000	85.00	8740.96	932.28	9.7797	78.060	752.125	37.298
227	22.600	803.00	56000.0	759.895	2.4944	0.5676	0.92	84.08	0.2500	0.0000	85.00	8816.17	940.09	9.7795	78.418	755.838	37.494
228	22.700	801.00	56000.0	763.644	2.5094	0.5651	0.92	84.08	0.2500	0.0000	85.00	8891.76	947.93	9.7793	78.777	759.570	37.693
229	22.800	799.00	56000.0	767.413	2.5245	0.5626	0.92	84.08	0.2500	0.0000	85.00	8967.71	955.81	9.7790	79.139	763.322	37.895
230	22.900	797.00	56000.0	771.203	2.5397	0.5601	0.92	84.08	0.2500	0.0000	85.00	9044.05	963.72	9.7788	79.502	767.094	38.101
231	23.000	795.00	56000.0	775.013	2.5550	0.5575	0.91	84.09	0.2500	0.0000	85.00	9120.76	971.67	9.7786	79.867	770.887	38.310
232	23.100	793.00	56000.0	778.844	2.5705	0.5549	0.91	84.09	0.2500	0.0000	85.00	9197.85	979.66	9.7783	80.234	774.700	38.523
233	23.200	791.00	56000.0	782.696	2.5860	0.5523	0.91	84.09	0.2500	0.0000	85.00	9275.32	987.68	9.7781	80.603	778.535	38.738
234	23.300	789.00	56000.0	786.570	2.6017	0.5499	0.91	84.09	0.2500	0.0000	85.00	9353.17	995.74	9.7779	80.974	782.391	38.950
235	23.400	787.00	56000.0	790.465	2.6175	0.5489	0.91	84.09	0.2500	0.0000	85.00	9431.41	1003.84	9.7776	81.347	786.268	39.106
236	23.500	785.00	56000.0	794.376	2.6334	0.5479	0.90	84.10	0.2500	0.0000	85.00	9510.03	1011.98	9.7774	81.721	790.161	39.264
237	23.600	783.00	56000.0	798.302	2.6494	0.5469	0.90	84.10	0.2500	0.0000	85.00	9589.05	1020.15	9.7771	82.097	794.069	39.425
238	23.700	781.00	56000.0	802.245	2.6655	0.5459	0.90	84.10	0.2500	0.0000	85.00	9668.46	1028.36	9.7769	82.474	797.994	39.590
239	23.800	779.00	56000.0	806.204	2.6818	0.5449	0.90	84.10	0.2500	0.0000	85.00	9748.26	1036.60	9.7766	82.853	801.935	39.757
240	23.900	777.00	56000.0	810.179	2.6981	0.5439	0.90	84.10	0.2500	0.0000	85.00	9828.45	1044.89	9.7764	83.233	805.892	39.926
241	24.000	775.00	56000.0	814.172	2.7146	0.5428	0.89	84.11	0.2500	0.0000	85.00	9909.04	1053.21	9.7761	83.615	809.867	40.099
242	24.100	773.00	56000.0	818.182	2.7311	0.5418	0.89	84.11	0.2500	0.0000	85.00	9990.03	1061.57	9.7759	83.998	813.859	40.275
243	24.200	771.00	56000.0	822.209	2.7478	0.5408	0.89	84.11	0.2500	0.0000	85.00	10071.41	1069.97	9.7756	84.383	817.868	40.454
244	24.300	769.00	56000.0	826.255	2.7646	0.5397	0.89	84.11	0.2500	0.0000	85.00	10153.20	1078.41	9.7754	84.770	821.895	40.635
245	24.400	767.00	56000.0	830.318	2.7816	0.5387	0.89	84.11	0.2500	0.0000	85.00	10235.39	1086.89	9.7751	85.158	825.940	40.820
246	24.500	765.00	56000.0	834.400	2.7986	0.5376	0.88	84.12	0.2500	0.0000	85.00	10317.98	1095.41	9.7749	85.548	830.003	41.008
247	24.600	763.00	56000.0	838.501	2.8158	0.5365	0.88	84.12	0.2500	0.0000	85.00	10400.98	1103.96	9.7746	85.939	834.085	41.198
248	24.700	761.00	56000.0	842.621	2.8331	0.5354	0.88	84.12	0.2500	0.0000	85.00	10484.39	1112.55	9.7744	86.332	838.186	41.392
249	24.800	759.00	56000.0	846.760	2.8505	0.5343	0.88	84.12	0.2500	0.0000	85.00	10568.21	1121.19	9.7741	86.727	842.307	41.589
250	24.900	757.00	56000.0	850.919	2.8681	0.5332	0.88	84.12	0.2500	0.0000	85.00	10652.44	1129.86	9.7739	87.124	846.447	41.789
251	25.000	755.00	56000.0	855.098	2.8858	0.5321	0.87	84.13	0.2500	0.0000	85.00	10737.09	1138.57	9.7736	87.523	850.607	41.992
252	25.100	753.00	56000.0	859.297	2.9036	0.5310	0.87	84.13	0.2500	0.0000	85.00	10822.15	1147.32	9.7733	87.923	854.787	42.198
253	25.200	751.00	56000.0	863.517	2.9216	0.5299	0.87	84.13	0.2500	0.0000	85.00	10907.62	1156.12	9.7731	88.326	858.987	42.407
254	25.300	749.00	56000.0	867.757	2.9397	0.5288	0.87	84.13	0.2500	0.0000	85.00	10993.52	1164.95	9.7728	88.730	863.209	42.619
255	25.400	747.00	56000.0	872.019	2.9553	0.5278	0.87	84.13	0.2500	0.0000	85.00	11079.84	1173.82	9.7726	89.136	867.452	42.935
256	25.500	745.00	56000.0	876.313	2.9699	0.5269	0.86	84.14	0.2500	0.0000	85.00	11166.59	1182.74	9.7723	89.546	871.726	43.200
257	25.600	743.00	56000.0	880.633	2.9845	0.5260	0.86	84.14	0.2500	0.0000	85.00	11253.76	1191.69	9.7720	89.958	876.026	43.468
258	25.700	741.00	56000.0	884.979	2.9992	0.5250	0.86	84.14	0.2500	0.0000	85.00	11341.36	1200.69	9.7718	90.372	880.353	43.737
259	25.800	739.00	56000.0	889.353	3.0140	0.5241	0.86	84.14	0.2500	0.0000	85.00	11429.40	1209.72	9.7715	90.789	884.707	44.009
260	25.900	737.00	56000.0	893.754	3.0290	0.5232	0.86	84.14	0.2500	0.0000	85.00	11517.87	1218.80	9.7712	91.209	889.088	44.283
261	26.000	735.00	56000.0	898.182	3.0440	0.5223	0.86	84.14	0.2500	0.0000	85.00	11606.78	1227.92	9.7709	91.631	893.496	44.559
262	26.100	733.00	56000.0	902.638	3.0591	0.5213	0.85	84.15	0.2500	0.0000	85.00	11696.13	1237.09	9.7707	92.056	897.932	44.838
263	26.200	731.00	56000.0	907.122	3.0743	0.5204	0.85	84.15	0.2500	0.0000	85.00	11785.92	1246.29	9.7704	92.483	902.395	45.119
264	26.300	729.00	56000.0	911.634	3.0896	0.5194	0.85	84.15	0.2500	0.0000	85.00	11876.16	1255.54	9.7701	92.914	906.887	45.402
265	26.400	727.00	56000.0	916.174	3.1049	0.5184	0.85	84.15	0.2500	0.0000	85.00	11966.85	1264.83	9.7698	93.347	911.406	45.688
266	26.500	725.00	56000.0	920.743	3.1204	0.5175	0.85	84.15	0.2500	0.0000	85.00	12057.99	1274.17	9.7696	93.782	915.954	45.976
267	26.600	723.00	56000.0	925.340	3.1360	0.5165	0.84	84.16	0.2500	0.0000	85.00	12149.59	1283.54	9.7693	94.221	920.531	46.266
268	26.700	721.00	56000.0	929.967	3.1517	0.5155	0.84	84.16	0.2500	0.0000	85.00	12241.64	1292.97	9.7690	94.662	925.137	46.558
269	26.800	719.00	56000.0	934.623	3.1675	0.5145	0.84	84.16	0.2500	0.0000	85.00	12334.15	1302.43	9.7687	95.106	929.771	46.853
270	26.900	717.00	56000.0	939.308	3.1833	0.5135	0.84	84.16	0.2500	0.0000	85.00	12427.13	1311.94	9.7684	95.552	934.435	47.150
271	27.000	715.00	56000.0	944.023	3.1993	0.5125	0.84	84.16	0.2500	0.0000	85.00	12520.57	1321.50	9.7681	96.002	939.129	47.450
272	27.100	713.00	56000.0	948.768	3.2154	0.5115	0.83	84.17	0.2500	0.0000	85.00	12614.49	1331.10	9.7678	96.454	943.853	47.752
273	27.200	711.00	56000.0	953.543	3.2316	0.5105	0.83	84.17	0.2500	0.0000	85.00	12708.87	1340.74	9.7676	96.910	948.606	48.056
274	27.300	709.00	56000.0	958.349	3.2479	0.5095	0.83	84.17	0.2500	0.0000	85.00	12803.73	1350.44	9.7673	97.368	953.390	48.363
275	27.400	707.00	56000.0	963.185	3.2643	0.5085	0.83	84.17	0.2500	0.0000	85.00	12899.07	1360.17	9.7670	97.829	958.204	48.672
276	27.500	705.00	56000.0	968.053	3.2808	0.5075	0.83	84.17	0.2500	0.0000	85.00	12994.89	1369.96	9.7667	98.293	963.049	48.984
277	27.600	703.00	56000.0	972.951	3.2974	0.5064	0.83	84.17	0.2500	0.0000	85.00	13091.20	1379.78	9.7664	98.760	967.926	49.297
278	27.700	701.00	56000.0	977.881	3.3141	0.5054	0.82	84.18	0.2500	0.0000	85.00	13187.99	1389.66	9.7661	99.230	972.833	49.614
279	27.800	699.00	56000.0	982.842	3.3309	0.5043	0.82	84.18	0.2500	0.0000	85.00	13285.27	1399.58	9.7658	99.703	977.772	49.932
280	27.900	697.00	56000.0	987.835	3.3478	0.5033	0.82	84.18	0.2500	0.0000	85.00	13383.05	1409.55	9.7655	100.179	982.742	50.253
281	28.000	695.00	56000.0	992.861	3.3648	0.5022	0.82	84.18	0.2500	0.0000	85.00	13481.32	1419.57	9.7652	100.658	987.745	50.577
282	28.100	693.00	56000.0	997.918	3.3820	0.5011	0.82	84.18	0.2500	0.0000	85.00	13580.10	1429.64	9.7649	101.141	992.780	50.903
283	28.200	691.00	56000.0	1003.009	3.3992	0.5000	0.82	84.18	0.2500	0.0000	85.00	13679.38	1439.75	9.7646	101.626	997.847	51.231
284	28.300	689.00	56000.0	1008.132	3.4166	0.4997	0.81	84.19	0.2500	0.0000	85.00	13779.16	1449.91	9.7643	102.114	1002.947	51.533
285	28.400	687.00	56000.0	1013.285	3.4341	0.4993	0.81	84.19	0.2500	0.0000	85.00	13879.46	1460.13	9.7640	102.606	1008.077	51.836
286	28.500	685.00	56000.0	1018.469	3.4516	0.4990	0.81	84.19	0.2500	0.0000	85.00	13980.26	1470.39	9.7637	103.100	1013.237	52.142
287	28.600	683.00	56000.0	1023.683	3.4693	0.4987	0.81	84.19	0.2500	0.0000	85.00	14081.59	1480.70	9.7633	103.597	1018.427	52.450
288	28.700	681.00	56000.0	1028.928	3.4871	0.4983	0.81	84.19	0.2500	0.0000	85.00	14183.43	1491.06	9.7630	104.097	1023.649	52.761
289	28.800	679.00	56000.0	1034.204	3.5050	0.4980	0.80	84.20	0.2500	0.0000	85.00	14285.80	1501.47	9.7627	104.600	1028.901	53.074
290	28.900	677.00	56000.0	1039.511	3.5229	0.4976	0.80	84.20	0.2500	0.0000	85.00	14388.69	1511.93	9.7624	105.105	1034.184	53.390
291	29.000	675.00	56000.0	1044.850	3.5410	0.4973	0.80	84.20	0.2500	0.0000	85.00	14492.10	1522.44	9.7621	105.614	1039.499	53.708
292	29.100	673.00	56000.0	1050.221	3.5592	0.4969	0.80	84.20	0.2500	0.0000	85.00	14596.05	1533.00	9.7618	106.126	1044.845	54.029
293	29.200	671.00	56000.0	1055.624	3.5775	0.4966	0.80	84.20	0.2500	0.0000	85.00	14700.54	1543.61	9.7614	106.641	1050.224	54.353
294	29.300	669.00	56000.0	1061.059	3.5960	0.4962	0.80	84.20	0.2500	0.0000	85.00	14805.56	1554.27	9.7611	107.159	1055.634	54.679
295	29.400	667.00	56000.0	1066.527	3.6145	0.4959	0.79	84.21	0.2500	0.0000	85.00	14911.12	1564.99	9.7608	107.680	1061.077	55.007
296	29.500	665.00	56000.0	1072.028	3.6331	0.4955	0.79	84.21	0.2500	0.0000	85.00	15017.23	1575.76	9.7605	108.204	1066.553	55.339
297	29.600	663.00	56000.0	1077.562	3.6519	0.4952	0.79	84.21	0.2500	0.0000	85.00	15123.89	1586.58	9.7602	108.731	1072.062	55.672
298	29.700	661.00	56000.0	1083.129	3.6708	0.4948	0.79	84.21	0.2500	0.0000	85.00	15231.09	1597.45	9.7598	109.261	1077.604	56.009
299	29.800	659.00	56000.0	1088.730	3.6897	0.4944	0.79	84.21	0.2500	0.0000	85.00	15338.85	1608.38	9.7595	109.795	1083.180	56.348
300	29.900	657.00	56000.0	1094.365	3.7088	0.4941	0.79	84.21	0.2500	0.0000	85.00	15447.17	1619.36	9.7592	110.331	1088.789	56.689
301	30.000	655.00	56000.0	1100.034	3.7280	0.4937	0.78	84.22	0.2500	0.0000	85.00	15556.05	1630.39	9.7588	110.871	1094.432	57.034
