N	t(c)	m(kg)	P(H)	V(m/s)	M	Cxa	alpha(grad)	theta_c(grad)	Cya_alpha	omega_z(1/s)	theta(grad)	y(m)	x(m)	g(m/s2)	x_dotc(m/s)	y_dotc(m/s)	V_dot(m/s2)
1	0.000	1255.00	56000.0	10.000	0.0294	0.3000	0.00	85.00	0.2500	0.0000	85.00	0.00	0.00	9.8066	0.872	9.962	34.849
2	0.100	1253.00	56000.0	13.489	0.0396	0.3000	0.00	84.56	0.2500	0.0000	85.00	1.17	0.11	9.8066	1.280	13.428	34.924
3	0.200	1251.00	56000.0	16.985	0.0499	0.3000	0.00	84.19	0.2500	0.0000	85.00	2.69	0.26	9.8066	1.719	16.898	34.998
4	0.300	1249.00	56000.0	20.488	0.0602	0.3000	0.00	83.88	0.2500	0.0000	85.00	4.55	0.45	9.8066	2.186	20.371	35.071
5	0.400	1247.00	56000.0	23.999	0.0705	0.3000	0.00	83.60	0.2500	0.0000	85.00	6.76	0.70	9.8066	2.676	23.849	35.143
6	0.500	1245.00	56000.0	27.517	0.0809	0.3000	0.00	83.35	0.2500	0.0000	85.00	9.32	0.99	9.8066	3.187	27.332	35.213
7	0.600	1243.00	56000.0	31.042	0.0912	0.3000	0.00	83.12	0.2500	0.0000	85.00	12.23	1.34	9.8066	3.717	30.818	35.283
8	0.700	1241.00	56000.0	34.573	0.1016	0.3000	0.00	82.91	0.2500	0.0000	85.00	15.48	1.74	9.8066	4.265	34.309	35.352
9	0.800	1239.00	56000.0	38.112	0.1120	0.3000	0.00	82.72	0.2500	0.0000	85.00	19.09	2.19	9.8066	4.829	37.805	35.421
10	0.900	1237.00	56000.0	41.658	0.1224	0.3000	0.00	82.54	0.2500	0.0000	85.00	23.04	2.70	9.8066	5.409	41.305	35.488
11	1.000	1235.00	56000.0	45.210	0.1329	0.3000	0.00	82.37	0.2500	0.0000	85.00	27.35	3.27	9.8066	6.003	44.809	35.554
12	1.100	1233.00	56000.0	48.768	0.1434	0.3000	0.00	82.21	0.2500	0.0000	85.00	32.00	3.90	9.8066	6.612	48.318	35.620
13	1.200	1231.00	56000.0	52.334	0.1539	0.3000	0.00	82.06	0.2500	0.0000	85.00	37.01	4.60	9.8065	7.233	51.831	35.685
14	1.300	1229.00	56000.0	55.905	0.1644	0.3000	0.00	81.91	0.2500	0.0000	85.00	42.37	5.35	9.8065	7.866	55.349	35.749
15	1.400	1227.00	56000.0	59.483	0.1749	0.3000	0.00	81.77	0.2500	0.0000	85.00	48.08	6.17	9.8065	8.512	58.871	35.812
16	1.500	1225.00	56000.0	63.068	0.1854	0.3000	0.00	81.64	0.2500	0.0000	85.00	54.14	7.06	9.8065	9.169	62.398	35.875
17	1.600	1223.00	56000.0	66.658	0.1960	0.3000	0.00	81.51	0.2500	0.0000	85.00	60.56	8.01	9.8065	9.837	65.928	35.937
18	1.700	1221.00	56000.0	70.255	0.2066	0.3000	0.00	81.39	0.2500	0.0000	85.00	67.33	9.02	9.8064	10.516	69.464	35.998
19	1.800	1219.00	56000.0	73.858	0.2172	0.3000	0.00	81.27	0.2500	0.0000	85.00	74.45	10.11	9.8064	11.205	73.003	36.058
20	1.900	1217.00	56000.0	77.467	0.2279	0.3000	0.00	81.16	0.2500	0.0000	85.00	81.93	11.26	9.8064	11.904	76.546	36.117
21	2.000	1215.00	56000.0	81.081	0.2385	0.3000	0.00	81.05	0.2500	0.0000	85.00	89.76	12.49	9.8064	12.613	80.094	36.176
22	2.100	1213.00	56000.0	84.702	0.2492	0.3000	0.00	80.94	0.2500	0.0000	85.00	97.95	13.79	9.8063	13.331	83.646	36.234
23	2.200	1211.00	56000.0	88.328	0.2599	0.3000	0.00	80.84	0.2500	0.0000	85.00	106.49	15.16	9.8063	14.058	87.202	36.291
24	2.300	1209.00	56000.0	91.960	0.2706	0.3000	0.00	80.74	0.2500	0.0000	85.00	115.39	16.60	9.8063	14.794	90.762	36.347
25	2.400	1207.00	56000.0	95.597	0.2813	0.3000	0.00	80.65	0.2500	0.0000	85.00	124.64	18.12	9.8063	15.539	94.326	36.403
26	2.500	1205.00	56000.0	99.240	0.2921	0.3000	0.00	80.55	0.2500	0.0000	85.00	134.25	19.71	9.8062	16.293	97.894	36.457
27	2.600	1203.00	56000.0	102.889	0.3028	0.3000	0.00	80.46	0.2500	0.0000	85.00	144.22	21.38	9.8062	17.054	101.466	36.511
28	2.700	1201.00	56000.0	106.543	0.3136	0.3000	0.00	80.37	0.2500	0.0000	85.00	154.55	23.12	9.8062	17.823	105.041	36.565
29	2.800	1199.00	56000.0	110.202	0.3244	0.3000	0.00	80.28	0.2500	0.0000	85.00	165.23	24.94	9.8061	18.601	108.621	36.617
30	2.900	1197.00	56000.0	113.866	0.3353	0.3000	0.00	80.20	0.2500	0.0000	85.00	176.27	26.84	9.8061	19.386	112.204	36.669
31	3.000	1195.00	56000.0	117.535	0.3461	0.3000	0.00	80.11	0.2500	0.0000	85.00	187.67	28.82	9.8061	20.178	115.790	36.720
32	3.100	1193.00	56000.0	121.210	0.3570	0.3000	0.00	80.03	0.2500	0.0000	85.00	199.43	30.88	9.8060	20.978	119.381	36.770
33	3.200	1191.00	56000.0	124.889	0.3679	0.3000	0.00	79.95	0.2500	0.0000	85.00	211.55	33.02	9.8060	21.785	122.974	36.819
34	3.300	1189.00	56000.0	128.574	0.3788	0.3000	0.00	79.88	0.2500	0.0000	85.00	224.02	35.23	9.8060	22.600	126.572	36.868
35	3.400	1187.00	56000.0	132.263	0.3897	0.3000	0.00	79.80	0.2500	0.0000	85.00	236.86	37.54	9.8059	23.421	130.173	36.915
36	3.500	1185.00	56000.0	135.957	0.4007	0.3000	0.00	79.73	0.2500	0.0000	85.00	250.06	39.92	9.8059	24.249	133.777	36.962
37	3.600	1183.00	56000.0	139.655	0.4116	0.3000	0.00	79.65	0.2500	0.0000	85.00	263.62	42.39	9.8058	25.084	137.384	37.009
38	3.700	1181.00	56000.0	143.358	0.4226	0.3000	0.00	79.58	0.2500	0.0000	85.00	277.54	44.94	9.8058	25.925	140.995	37.054
39	3.800	1179.00	56000.0	147.066	0.4336	0.3000	0.00	79.51	0.2500	0.0000	85.00	291.82	47.57	9.8057	26.773	144.609	37.099
40	3.900	1177.00	56000.0	150.778	0.4446	0.3000	0.00	79.44	0.2500	0.0000	85.00	306.46	50.29	9.8057	27.627	148.225	37.143
41	4.000	1175.00	56000.0	154.495	0.4557	0.3000	0.00	79.37	0.2500	0.0000	85.00	321.46	53.10	9.8057	28.487	151.845	37.186
42	4.100	1173.00	56000.0	158.215	0.4667	0.3000	0.00	79.31	0.2500	0.0000	85.00	336.83	55.99	9.8056	29.353	155.468	37.229
43	4.200	1171.00	56000.0	161.940	0.4778	0.3000	0.00	79.24	0.2500	0.0000	85.00	352.55	58.97	9.8056	30.226	159.094	37.270
44	4.300	1169.00	56000.0	165.669	0.4889	0.3000	0.00	79.18	0.2500	0.0000	85.00	368.64	62.04	9.8055	31.104	162.723	37.311
45	4.400	1167.00	56000.0	169.402	0.5000	0.3000	0.00	79.12	0.2500	0.0000	85.00	385.10	65.19	9.8055	31.989	166.355	37.352
46	4.500	1165.00	56000.0	173.140	0.5111	0.3000	0.00	79.05	0.2500	0.0000	85.00	401.92	68.43	9.8054	32.879	169.989	37.391
47	4.600	1163.00	56000.0	176.881	0.5223	0.3000	0.00	78.99	0.2500	0.0000	85.00	419.10	71.77	9.8054	33.774	173.626	37.430
48	4.700	1161.00	56000.0	180.625	0.5334	0.3000	0.00	78.93	0.2500	0.0000	85.00	436.64	75.19	9.8053	34.676	177.266	37.468
49	4.800	1159.00	56000.0	184.374	0.5446	0.3000	0.00	78.87	0.2500	0.0000	85.00	454.55	78.70	9.8052	35.582	180.908	37.505
50	4.900	1157.00	56000.0	188.125	0.5558	0.3058	0.00	78.81	0.2500	0.0000	85.00	472.82	82.31	9.8052	36.494	184.552	37.518
51	5.000	1155.00	56000.0	191.876	0.5670	0.3170	0.00	78.76	0.2500	0.0000	85.00	491.46	86.00	9.8051	37.411	188.194	37.504
52	5.100	1153.00	56000.0	195.626	0.5782	0.3282	0.00	78.70	0.2500	0.0000	85.00	510.46	89.79	9.8051	38.332	191.834	37.487
53	5.200	1151.00	56000.0	199.373	0.5894	0.3394	0.00	78.64	0.2500	0.0000	85.00	529.83	93.67	9.8050	39.257	195.470	37.465
54	5.300	1149.00	56000.0	203.119	0.6006	0.3506	0.00	78.59	0.2500	0.0000	85.00	549.56	97.64	9.8050	40.186	199.104	37.438
55	5.400	1147.00	56000.0	206.861	0.6118	0.3618	0.00	78.53	0.2500	0.0000	85.00	569.65	101.70	9.8049	41.118	202.733	37.406
56	5.500	1145.00	56000.0	210.600	0.6230	0.3730	0.00	78.48	0.2500	0.0000	85.00	590.10	105.86	9.8048	42.055	206.358	37.370
57	5.600	1143.00	56000.0	214.334	0.6342	0.3842	0.00	78.43	0.2500	0.0000	85.00	610.92	110.12	9.8048	42.994	209.978	37.329
58	5.700	1141.00	56000.0	218.065	0.6454	0.3954	0.00	78.38	0.2500	0.0000	85.00	632.10	114.46	9.8047	43.937	213.593	37.283
59	5.800	1139.00	56000.0	221.791	0.6566	0.4066	0.00	78.32	0.2500	0.0000	85.00	653.64	118.90	9.8046	44.884	217.202	37.232
60	5.900	1137.00	56000.0	225.511	0.6678	0.4178	0.00	78.27	0.2500	0.0000	85.00	675.54	123.44	9.8046	45.833	220.804	37.176
61	6.000	1135.00	56000.0	229.226	0.6790	0.4290	0.00	78.22	0.2500	0.0000	85.00	697.80	128.07	9.8045	46.785	224.400	37.115
62	6.100	1133.00	56000.0	232.934	0.6901	0.4401	0.00	78.17	0.2500	0.0000	85.00	720.42	132.80	9.8044	47.740	227.989	37.049
63	6.200	1131.00	56000.0	236.635	0.7013	0.4513	0.00	78.12	0.2500	0.0000	85.00	743.40	137.62	9.8044	48.697	231.570	36.977
64	6.300	1129.00	56000.0	240.329	0.7124	0.4624	0.00	78.08	0.2500	0.0000	85.00	766.73	142.54	9.8043	49.656	235.143	36.901
65	6.400	1127.00	56000.0	244.015	0.7235	0.4735	0.00	78.03	0.2500	0.0000	85.00	790.42	147.55	9.8042	50.618	238.707	36.819
66	6.500	1125.00	56000.0	247.693	0.7347	0.4847	0.00	77.98	0.2500	0.0000	85.00	814.47	152.66	9.8041	51.582	242.262	36.733
67	6.600	1123.00	56000.0	251.361	0.7457	0.4957	0.00	77.93	0.2500	0.0000	85.00	838.88	157.87	9.8041	52.547	245.807	36.641
68	6.700	1121.00	56000.0	255.020	0.7568	0.5068	0.00	77.89	0.2500	0.0000	85.00	863.63	163.17	9.8040	53.515	249.342	36.544
69	6.800	1119.00	56000.0	258.670	0.7679	0.5179	0.00	77.84	0.2500	0.0000	85.00	888.74	168.57	9.8039	54.483	252.867	36.441
70	6.900	1117.00	56000.0	262.308	0.7789	0.5289	0.00	77.80	0.2500	0.0000	85.00	914.21	174.07	9.8038	55.453	256.380	36.334
71	7.000	1115.00	56000.0	265.936	0.7899	0.5399	0.00	77.75	0.2500	0.0000	85.00	940.02	179.66	9.8038	56.425	259.881	36.221
72	7.100	1113.00	56000.0	269.552	0.8009	0.5513	0.00	77.71	0.2496	0.0000	85.00	966.18	185.35	9.8037	57.397	263.370	36.099
73	7.200	1111.00	56000.0	273.153	0.8118	0.5678	0.00	77.66	0.2441	0.0000	85.00	992.69	191.14	9.8036	58.369	266.844	35.929
74	7.300	1109.00	56000.0	276.737	0.8227	0.5841	0.00	77.62	0.2386	0.0000	85.00	1019.55	197.03	9.8035	59.341	270.300	35.751
75	7.400	1107.00	56000.0	280.303	0.8336	0.6004	0.00	77.57	0.2332	0.0000	85.00	1046.75	203.01	9.8034	60.313	273.738	35.567
76	7.500	1105.00	56000.0	283.850	0.8444	0.6166	0.00	77.53	0.2278	0.0000	85.00	1074.30	209.09	9.8033	61.284	277.156	35.376
77	7.600	1103.00	56000.0	287.378	0.8552	0.6328	0.00	77.49	0.2224	0.0000	85.00	1102.19	215.27	9.8033	62.254	280.554	35.178
78	7.700	1101.00	56000.0	290.885	0.8659	0.6489	0.00	77.45	0.2170	0.0000	85.00	1130.41	221.54	9.8032	63.223	283.932	34.973
79	7.800	1099.00	56000.0	294.372	0.8766	0.6649	0.00	77.41	0.2117	0.0000	85.00	1158.97	227.91	9.8031	64.190	287.288	34.762
80	7.900	1097.00	56000.0	297.837	0.8872	0.6808	0.00	77.36	0.2064	0.0000	85.00	1187.87	234.38	9.8030	65.156	290.623	34.544
81	8.000	1095.00	56000.0	301.280	0.8978	0.6966	0.00	77.32	0.2011	0.0000	85.00	1217.10	240.94	9.8029	66.120	293.935	34.320
82	8.100	1093.00	56000.0	304.701	0.9083	0.7116	0.00	77.28	0.2083	0.0000	85.00	1246.66	247.60	9.8028	67.082	297.225	34.098
83	8.200	1091.00	56000.0	308.100	0.9187	0.7262	0.00	77.24	0.2187	0.0000	85.00	1276.54	254.36	9.8027	68.042	300.493	33.874
84	8.300	1089.00	56000.0	311.476	0.9291	0.7407	0.00	77.20	0.2291	0.0000	85.00	1306.75	261.21	9.8026	69.000	303.737	33.643
85	8.400	1087.00	56000.0	314.828	0.9394	0.7552	0.00	77.16	0.2394	0.0000	85.00	1337.29	268.16	9.8025	69.956	306.957	33.408
86	8.500	1085.00	56000.0	318.157	0.9497	0.7696	0.00	77.12	0.2497	0.0000	85.00	1368.15	275.20	9.8024	70.910	310.154	33.167
87	8.600	1083.00	56000.0	321.461	0.9599	0.7839	0.00	77.08	0.2599	0.0000	85.00	1399.32	282.34	9.8023	71.860	313.326	32.921
88	8.700	1081.00	56000.0	324.741	0.9701	0.7981	0.00	77.04	0.2701	0.0000	85.00	1430.81	289.58	9.8022	72.808	316.473	32.670
89	8.800	1079.00	56000.0	327.995	0.9802	0.8122	0.00	77.01	0.2802	0.0000	85.00	1462.61	296.90	9.8021	73.754	319.595	32.415
90	8.900	1077.00	56000.0	331.223	0.9902	0.8262	0.00	76.97	0.2902	0.0000	85.00	1494.73	304.33	9.8020	74.696	322.691	32.155
91	9.000	1075.00	56000.0	334.426	1.0001	0.8400	0.00	76.93	0.3000	0.0000	85.00	1527.15	311.84	9.8019	75.635	325.760	31.893
92	9.100	1073.00	56000.0	337.608	1.0100	0.8433	0.00	76.89	0.3017	0.0000	85.00	1559.88	319.45	9.8018	76.572	328.810	31.761
93	9.200	1071.00	56000.0	340.778	1.0199	0.8466	0.00	76.85	0.3033	0.0000	85.00	1592.91	327.16	9.8017	77.508	331.846	31.627
94	9.300	1069.00	56000.0	343.933	1.0298	0.8499	0.00	76.82	0.3050	0.0000	85.00	1626.25	334.96	9.8016	78.444	334.868	31.492
95	9.400	1067.00	56000.0	347.076	1.0396	0.8532	0.00	76.78	0.3066	0.0000	85.00	1659.89	342.85	9.8015	79.380	337.876	31.356
96	9.500	1065.00	56000.0	350.204	1.0494	0.8565	0.00	76.74	0.3082	0.0000	85.00	1693.83	350.83	9.8014	80.315	340.870	31.219
97	9.600	1063.00	56000.0	353.319	1.0591	0.8597	0.00	76.71	0.3099	0.0000	85.00	1728.06	358.91	9.8013	81.250	343.850	31.081
98	9.700	1061.00	56000.0	356.421	1.0689	0.8622	0.00	76.67	0.2967	0.0000	85.00	1762.60	367.08	9.8012	82.183	346.817	30.953
99	9.800	1059.00	56000.0	359.510	1.0786	0.8646	0.00	76.63	0.2822	0.0000	85.00	1797.43	375.35	9.8011	83.117	349.770	30.825
100	9.900	1057.00	56000.0	362.586	1.0882	0.8671	0.00	76.60	0.2677	0.0000	85.00	1832.55	383.71	9.8010	84.050	352.710	30.696
101	10.000	1055.00	56000.0	365.649	1.0979	0.8695	0.00	76.56	0.2532	0.0000	85.00	1867.97	392.16	9.8009	84.982	355.637	30.567
102	10.100	1053.00	56000.0	368.703	1.1075	0.8670	0.00	76.53	0.2500	0.0000	85.00	1903.68	400.70	9.8008	85.914	358.554	30.512
103	10.200	1051.00	56000.0	371.752	1.1172	0.8631	0.00	76.49	0.2500	0.0000	85.00	1939.68	409.34	9.8007	86.848	361.465	30.478
104	10.300	1049.00	56000.0	374.799	1.1268	0.8593	0.00	76.45	0.2500	0.0000	85.00	1975.97	418.07	9.8006	87.784	364.374	30.446
105	10.400	1047.00	56000.0	377.842	1.1364	0.8554	0.00	76.42	0.2500	0.0000	85.00	2012.55	426.90	9.8004	88.721	367.278	30.416
106	10.500	1045.00	56000.0	380.882	1.1461	0.8516	0.00	76.38	0.2500	0.0000	85.00	2049.43	435.82	9.8003	89.659	370.179	30.388
107	10.600	1043.00	56000.0	383.919	1.1557	0.8477	0.00	76.35	0.2500	0.0000	85.00	2086.59	444.83	9.8002	90.600	373.076	30.361
108	10.700	1041.00	56000.0	386.954	1.1654	0.8439	0.00	76.32	0.2500	0.0000	85.00	2124.04	453.94	9.8001	91.542	375.970	30.337
109	10.800	1039.00	56000.0	389.987	1.1750	0.8400	0.00	76.28	0.2500	0.0000	85.00	2161.78	463.14	9.8000	92.486	378.862	30.314
110	10.900	1037.00	56000.0	393.017	1.1847	0.8361	0.00	76.25	0.2500	0.0000	85.00	2199.81	472.43	9.7999	93.431	381.750	30.293
111	11.000	1035.00	56000.0	396.045	1.1944	0.8323	0.00	76.21	0.2500	0.0000	85.00	2238.13	481.82	9.7997	94.379	384.636	30.273
112	11.100	1033.00	56000.0	399.072	1.2040	0.8288	0.00	76.18	0.2500	0.0000	85.00	2276.74	491.31	9.7996	95.328	387.519	30.249
113	11.200	1031.00	56000.0	402.095	1.2137	0.8259	0.00	76.15	0.2500	0.0000	85.00	2315.64	500.89	9.7995	96.278	390.398	30.217
114	11.300	1029.00	56000.0	405.115	1.2234	0.8230	0.00	76.11	0.2500	0.0000	85.00	2354.82	510.56	9.7994	97.230	393.274	30.186
115	11.400	1027.00	56000.0	408.132	1.2331	0.8201	0.00	76.08	0.2500	0.0000	85.00	2394.29	520.34	9.7993	98.184	396.146	30.156
116	11.500	1025.00	56000.0	411.146	1.2428	0.8172	0.00	76.05	0.2500	0.0000	85.00	2434.05	530.20	9.7991	99.139	399.015	30.129
117	11.600	1023.00	56000.0	414.158	1.2525	0.8143	0.00	76.01	0.2500	0.0000	85.00	2474.09	540.16	9.7990	100.095	401.880	30.103
118	11.700	1021.00	56000.0	417.167	1.2622	0.8113	0.00	75.98	0.2500	0.0000	85.00	2514.42	550.22	9.7989	101.054	404.742	30.078
119	11.800	1019.00	56000.0	420.174	1.2719	0.8084	0.00	75.95	0.2500	0.0000	85.00	2555.04	560.37	9.7988	102.013	407.602	30.056
120	11.900	1017.00	56000.0	423.178	1.2816	0.8055	0.00	75.92	0.2500	0.0000	85.00	2595.94	570.62	9.7986	102.975	410.458	30.035
121	12.000	1015.00	56000.0	426.181	1.2914	0.8026	0.00	75.88	0.2500	0.0000	85.00	2637.13	580.97	9.7985	103.938	413.312	30.016
122	12.100	1013.00	56000.0	429.181	1.3011	0.7999	0.00	75.85	0.2500	0.0000	85.00	2678.61	591.41	9.7984	104.902	416.163	29.994
123	12.200	1011.00	56000.0	432.178	1.3109	0.7989	0.00	75.82	0.2500	0.0000	85.00	2720.37	601.95	9.7983	105.868	419.010	29.940
124	12.300	1009.00	56000.0	435.169	1.3206	0.7979	0.00	75.79	0.2500	0.0000	85.00	2762.41	612.59	9.7981	106.834	421.851	29.887
125	12.400	1007.00	56000.0	438.155	1.3303	0.7970	0.00	75.76	0.2500	0.0000	85.00	2804.74	623.32	9.7980	107.802	424.687	29.835
126	12.500	1005.00	56000.0	441.136	1.3401	0.7960	0.00	75.73	0.2500	0.0000	85.00	2847.35	634.15	9.7979	108.770	427.516	29.784
127	12.600	1003.00	56000.0	444.112	1.3498	0.7950	0.00	75.69	0.2500	0.0000	85.00	2890.24	645.07	9.7977	109.739	430.340	29.734
128	12.700	1001.00	56000.0	447.083	1.3595	0.7940	0.00	75.66	0.2500	0.0000	85.00	2933.41	656.09	9.7976	110.708	433.159	29.686
129	12.800	999.00	56000.0	450.049	1.3693	0.7931	0.00	75.63	0.2500	0.0000	85.00	2976.87	667.21	9.7975	111.679	435.972	29.639
130	12.900	997.00	56000.0	453.011	1.3790	0.7921	0.00	75.60	0.2500	0.0000	85.00	3020.61	678.43	9.7973	112.650	438.781	29.593
131	13.000	995.00	56000.0	455.968	1.3888	0.7911	0.00	75.57	0.2500	0.0000	85.00	3064.63	689.74	9.7972	113.623	441.584	29.548
132	13.100	993.00	56000.0	458.920	1.3985	0.7901	0.00	75.54	0.2500	0.0000	85.00	3108.93	701.15	9.7971	114.596	444.382	29.505
133	13.200	991.00	56000.0	461.870	1.4083	0.7881	0.00	75.51	0.2500	0.0000	85.00	3153.50	712.66	9.7969	115.570	447.177	29.487
134	13.300	989.00	56000.0	464.818	1.4180	0.7858	0.00	75.48	0.2500	0.0000	85.00	3198.36	724.27	9.7968	116.546	449.970	29.476
135	13.400	987.00	56000.0	467.765	1.4278	0.7835	0.00	75.45	0.2500	0.0000	85.00	3243.50	735.97	9.7967	117.524	452.761	29.467
136	13.500	985.00	56000.0	470.711	1.4376	0.7812	0.00	75.42	0.2500	0.0000	85.00	3288.91	747.77	9.7965	118.503	455.550	29.459
137	13.600	983.00	56000.0	473.657	1.4474	0.7789	0.00	75.39	0.2500	0.0000	85.00	3334.61	759.67	9.7964	119.485	458.339	29.453
138	13.700	981.00	56000.0	476.602	1.4572	0.7767	0.00	75.36	0.2500	0.0000	85.00	3380.58	771.67	9.7962	120.468	461.126	29.449
139	13.800	979.00	56000.0	479.547	1.4670	0.7744	0.00	75.33	0.2500	0.0000	85.00	3426.83	783.77	9.7961	121.453	463.912	29.447
140	13.900	977.00	56000.0	482.491	1.4769	0.7721	0.00	75.30	0.2500	0.0000	85.00	3473.36	795.96	9.7959	122.439	466.697	29.446
141	14.000	975.00	56000.0	485.436	1.4867	0.7698	0.00	75.27	0.2500	0.0000	85.00	3520.17	808.25	9.7958	123.428	469.482	29.448
142	14.100	973.00	56000.0	488.381	1.4966	0.7675	0.00	75.24	0.2500	0.0000	85.00	3567.26	820.65	9.7957	124.419	472.267	29.452
143	14.200	971.00	56000.0	491.326	1.5065	0.7651	0.00	75.21	0.2500	0.0000	85.00	3614.63	833.14	9.7955	125.411	475.051	29.457
144	14.300	969.00	56000.0	494.273	1.5164	0.7628	0.00	75.18	0.2500	0.0000	85.00	3662.27	845.73	9.7954	126.406	477.836	29.465
145	14.400	967.00	56000.0	497.219	1.5264	0.7605	0.00	75.15	0.2500	0.0000	85.00	3710.19	858.42	9.7952	127.403	480.620	29.474
146	14.500	965.00	56000.0	500.167	1.5363	0.7582	0.00	75.12	0.2500	0.0000	85.00	3758.39	871.21	9.7951	128.402	483.405	29.485
147	14.600	963.00	56000.0	503.117	1.5463	0.7559	0.00	75.10	0.2500	0.0000	85.00	3806.87	884.10	9.7949	129.403	486.191	29.499
148	14.700	961.00	56000.0	506.067	1.5563	0.7535	0.00	75.07	0.2500	0.0000	85.00	3855.63	897.09	9.7948	130.406	488.977	29.514
149	14.800	959.00	56000.0	509.019	1.5664	0.7512	0.00	75.04	0.2500	0.0000	85.00	3904.67	910.18	9.7946	131.411	491.764	29.531
150	14.900	957.00	56000.0	511.974	1.5764	0.7488	0.00	75.01	0.2500	0.0000	85.00	3953.98	923.37	9.7945	132.419	494.552	29.551
151	15.000	955.00	56000.0	514.930	1.5865	0.7465	0.00	74.98	0.2500	0.0000	85.00	4003.58	936.67	9.7943	133.430	497.342	29.572
152	15.100	953.00	56000.0	517.888	1.5966	0.7441	0.00	74.95	0.2500	0.0000	85.00	4053.45	950.06	9.7942	134.442	500.133	29.596
153	15.200	951.00	56000.0	520.849	1.6067	0.7418	0.00	74.93	0.2500	0.0000	85.00	4103.61	963.55	9.7940	135.457	502.926	29.622
154	15.300	949.00	56000.0	523.813	1.6169	0.7394	0.00	74.90	0.2500	0.0000	85.00	4154.04	977.15	9.7938	136.475	505.721	29.649
155	15.400	947.00	56000.0	526.779	1.6270	0.7370	0.00	74.87	0.2500	0.0000	85.00	4204.75	990.85	9.7937	137.495	508.519	29.679
156	15.500	945.00	56000.0	529.748	1.6373	0.7346	0.00	74.84	0.2500	0.0000	85.00	4255.74	1004.65	9.7935	138.518	511.318	29.711
157	15.600	943.00	56000.0	532.721	1.6475	0.7323	0.00	74.81	0.2500	0.0000	85.00	4307.01	1018.55	9.7934	139.543	514.120	29.745
158	15.700	941.00	56000.0	535.698	1.6578	0.7299	0.00	74.79	0.2500	0.0000	85.00	4358.57	1032.56	9.7932	140.571	516.925	29.782
159	15.800	939.00	56000.0	538.678	1.6681	0.7275	0.00	74.76	0.2500	0.0000	85.00	4410.40	1046.67	9.7931	141.602	519.733	29.820
160	15.900	937.00	56000.0	541.662	1.6784	0.7250	0.00	74.73	0.2500	0.0000	85.00	4462.51	1060.88	9.7929	142.636	522.544	29.861
161	16.000	935.00	56000.0	544.650	1.6888	0.7226	0.00	74.71	0.2500	0.0000	85.00	4514.91	1075.19	9.7927	143.672	525.359	29.904
162	16.100	933.00	56000.0	547.643	1.6992	0.7202	0.00	74.68	0.2500	0.0000	85.00	4567.58	1089.61	9.7926	144.712	528.177	29.949
163	16.200	931.00	56000.0	550.640	1.7096	0.7178	0.00	74.65	0.2500	0.0000	85.00	4620.54	1104.14	9.7924	145.754	530.999	29.997
164	16.300	929.00	56000.0	553.642	1.7201	0.7153	0.00	74.62	0.2500	0.0000	85.00	4673.78	1118.76	9.7922	146.800	533.825	30.046
165	16.400	927.00	56000.0	556.649	1.7306	0.7129	0.00	74.60	0.2500	0.0000	85.00	4727.31	1133.50	9.7921	147.848	536.656	30.098
166	16.500	925.00	56000.0	559.662	1.7411	0.7104	0.00	74.57	0.2500	0.0000	85.00	4781.12	1148.33	9.7919	148.900	539.491	30.152
167	16.600	923.00	56000.0	562.680	1.7517	0.7079	0.00	74.54	0.2500	0.0000	85.00	4835.21	1163.28	9.7917	149.955	542.330	30.209
168	16.700	921.00	56000.0	565.704	1.7623	0.7055	0.00	74.52	0.2500	0.0000	85.00	4889.58	1178.33	9.7916	151.013	545.175	30.268
169	16.800	919.00	56000.0	568.734	1.7730	0.7030	0.00	74.49	0.2500	0.0000	85.00	4944.24	1193.48	9.7914	152.075	548.025	30.329
170	16.900	917.00	56000.0	571.770	1.7837	0.7005	0.00	74.46	0.2500	0.0000	85.00	4999.19	1208.74	9.7912	153.140	550.880	30.392
171	17.000	915.00	56000.0	574.812	1.7945	0.6980	0.00	74.44	0.2500	0.0000	85.00	5054.42	1224.11	9.7911	154.208	553.741	30.458
172	17.100	913.00	56000.0	577.861	1.8053	0.6954	0.00	74.41	0.2500	0.0000	85.00	5109.93	1239.58	9.7909	155.280	556.607	30.527
173	17.200	911.00	56000.0	580.918	1.8161	0.6929	0.00	74.39	0.2500	0.0000	85.00	5165.74	1255.16	9.7907	156.356	559.480	30.597
174	17.300	909.00	56000.0	583.981	1.8270	0.6904	0.00	74.36	0.2500	0.0000	85.00	5221.83	1270.85	9.7906	157.435	562.359	30.671
175	17.400	907.00	56000.0	587.052	1.8379	0.6878	0.00	74.33	0.2500	0.0000	85.00	5278.21	1286.65	9.7904	158.518	565.245	30.746
176	17.500	905.00	56000.0	590.130	1.8489	0.6853	0.00	74.31	0.2500	0.0000	85.00	5334.88	1302.56	9.7902	159.604	568.137	30.824
177	17.600	903.00	56000.0	593.217	1.8599	0.6827	0.00	74.28	0.2500	0.0000	85.00	5391.84	1318.57	9.7900	160.695	571.037	30.905
178	17.700	901.00	56000.0	596.311	1.8710	0.6801	0.00	74.26	0.2500	0.0000	85.00	5449.09	1334.70	9.7899	161.789	573.944	30.988
179	17.800	899.00	56000.0	599.414	1.8821	0.6775	0.00	74.23	0.2500	0.0000	85.00	5506.63	1350.93	9.7897	162.888	576.858	31.073
180	17.900	897.00	56000.0	602.526	1.8933	0.6749	0.00	74.21	0.2500	0.0000	85.00	5564.46	1367.27	9.7895	163.990	579.780	31.161
181	18.000	895.00	56000.0	605.647	1.9045	0.6723	0.00	74.18	0.2500	0.0000	85.00	5622.58	1383.73	9.7893	165.097	582.710	31.252
182	18.100	893.00	56000.0	608.776	1.9158	0.6696	0.00	74.16	0.2500	0.0000	85.00	5681.00	1400.29	9.7891	166.208	585.648	31.345
183	18.200	891.00	56000.0	611.916	1.9272	0.6670	0.00	74.13	0.2500	0.0000	85.00	5739.71	1416.97	9.7890	167.323	588.595	31.440
184	18.300	889.00	56000.0	615.065	1.9386	0.6643	0.00	74.11	0.2500	0.0000	85.00	5798.72	1433.76	9.7888	168.442	591.550	31.539
185	18.400	887.00	56000.0	618.224	1.9500	0.6617	0.00	74.08	0.2500	0.0000	85.00	5858.02	1450.66	9.7886	169.566	594.515	31.640
186	18.500	885.00	56000.0	621.393	1.9615	0.6590	0.00	74.06	0.2500	0.0000	85.00	5917.62	1467.67	9.7884	170.694	597.488	31.743
187	18.600	883.00	56000.0	624.572	1.9731	0.6563	0.00	74.03	0.2500	0.0000	85.00	5977.52	1484.80	9.7882	171.827	600.472	31.849
188	18.700	881.00	56000.0	627.763	1.9847	0.6536	0.00	74.01	0.2500	0.0000	85.00	6037.72	1502.04	9.7880	172.964	603.465	31.958
189	18.800	879.00	56000.0	630.964	1.9964	0.6508	0.00	73.98	0.2500	0.0000	85.00	6098.21	1519.39	9.7879	174.106	606.467	32.070
190	18.900	877.00	56000.0	634.176	2.0082	0.6486	0.00	73.96	0.2500	0.0000	85.00	6159.01	1536.86	9.7877	175.253	609.480	32.166
191	19.000	875.00	56000.0	637.397	2.0200	0.6467	0.00	73.93	0.2500	0.0000	85.00	6220.11	1554.44	9.7875	176.404	612.500	32.255
192	19.100	873.00	56000.0	640.627	2.0319	0.6447	0.00	73.91	0.2500	0.0000	85.00	6281.51	1572.14	9.7873	177.559	615.529	32.348
193	19.200	871.00	56000.0	643.867	2.0438	0.6427	0.00	73.88	0.2500	0.0000	85.00	6343.21	1589.95	9.7871	178.718	618.566	32.443
194	19.300	869.00	56000.0	647.116	2.0558	0.6407	0.00	73.86	0.2500	0.0000	85.00	6405.22	1607.88	9.7869	179.882	621.612	32.540
195	19.400	867.00	56000.0	650.375	2.0678	0.6387	0.00	73.84	0.2500	0.0000	85.00	6467.54	1625.93	9.7867	181.050	624.666	32.640
196	19.500	865.00	56000.0	653.644	2.0799	0.6367	0.00	73.81	0.2500	0.0000	85.00	6530.16	1644.09	9.7865	182.223	627.730	32.742
197	19.600	863.00	56000.0	656.923	2.0921	0.6346	0.00	73.79	0.2500	0.0000	85.00	6593.08	1662.37	9.7863	183.400	630.803	32.847
198	19.700	861.00	56000.0	660.213	2.1044	0.6326	0.00	73.76	0.2500	0.0000	85.00	6656.32	1680.77	9.7861	184.581	633.886	32.954
199	19.800	859.00	56000.0	663.514	2.1167	0.6306	0.00	73.74	0.2500	0.0000	85.00	6719.86	1699.29	9.7859	185.768	636.978	33.064
200	19.900	857.00	56000.0	666.826	2.1290	0.6285	0.00	73.72	0.2500	0.0000	85.00	6783.71	1717.93	9.7858	186.959	640.081	33.177
201	20.000	855.00	56000.0	670.150	2.1415	0.6264	0.00	73.69	0.2500	0.0000	85.00	6847.88	1736.68	9.7856	188.155	643.194	33.292
202	20.100	853.00	56000.0	673.485	2.1540	0.6243	0.00	73.67	0.2500	0.0000	85.00	6912.35	1755.56	9.7854	189.356	646.317	33.409
203	20.200	851.00	56000.0	676.832	2.1665	0.6222	0.00	73.65	0.2500	0.0000	85.00	6977.14	1774.55	9.7852	190.562	649.451	33.530
204	20.300	849.00	56000.0	680.191	2.1792	0.6201	0.00	73.62	0.2500	0.0000	85.00	7042.24	1793.67	9.7850	191.773	652.597	33.653
205	20.400	847.00	56000.0	683.562	2.1919	0.6180	0.00	73.60	0.2500	0.0000	85.00	7107.66	1812.91	9.7848	192.989	655.754	33.778
206	20.500	845.00	56000.0	686.947	2.2047	0.6159	0.00	73.58	0.2500	0.0000	85.00	7173.39	1832.27	9.7846	194.210	658.922	33.907
207	20.600	843.00	56000.0	690.344	2.2176	0.6137	0.00	73.55	0.2500	0.0000	85.00	7239.44	1851.75	9.7844	195.437	662.102	34.038
208	20.700	841.00	56000.0	693.754	2.2305	0.6116	0.00	73.53	0.2500	0.0000	85.00	7305.81	1871.36	9.7841	196.669	665.294	34.172
209	20.800	839.00	56000.0	697.178	2.2436	0.6094	0.00	73.51	0.2500	0.0000	85.00	7372.50	1891.08	9.7839	197.906	668.499	34.308
210	20.900	837.00	56000.0	700.616	2.2567	0.6072	0.00	73.49	0.2500	0.0000	85.00	7439.51	1910.94	9.7837	199.149	671.716	34.448
211	21.000	835.00	56000.0	704.068	2.2698	0.6050	0.00	73.46	0.2500	0.0000	85.00	7506.84	1930.91	9.7835	200.398	674.946	34.590
212	21.100	833.00	56000.0	707.534	2.2831	0.6028	0.00	73.44	0.2500	0.0000	85.00	7574.50	1951.02	9.7833	201.652	678.189	34.735
213	21.200	831.00	56000.0	711.015	2.2965	0.6006	0.00	73.42	0.2500	0.0000	85.00	7642.48	1971.25	9.7831	202.912	681.446	34.882
214	21.300	829.00	56000.0	714.511	2.3099	0.5984	0.00	73.40	0.2500	0.0000	85.00	7710.79	1991.60	9.7829	204.178	684.717	35.033
215	21.400	827.00	56000.0	718.022	2.3234	0.5961	0.00	73.37	0.2500	0.0000	85.00	7779.43	2012.08	9.7827	205.450	688.001	35.187
216	21.500	825.00	56000.0	721.548	2.3370	0.5938	0.00	73.35	0.2500	0.0000	85.00	7848.39	2032.69	9.7825	206.728	691.300	35.343
217	21.600	823.00	56000.0	725.090	2.3507	0.5915	0.00	73.33	0.2500	0.0000	85.00	7917.69	2053.43	9.7823	208.013	694.613	35.502
218	21.700	821.00	56000.0	728.649	2.3645	0.5892	0.00	73.31	0.2500	0.0000	85.00	7987.31	2074.29	9.7821	209.303	697.941	35.664
219	21.800	819.00	56000.0	732.223	2.3784	0.5869	0.00	73.28	0.2500	0.0000	85.00	8057.27	2095.29	9.7818	210.600	701.284	35.830
220	21.900	817.00	56000.0	735.815	2.3924	0.5846	0.00	73.26	0.2500	0.0000	85.00	8127.57	2116.41	9.7816	211.903	704.642	35.998
221	22.000	815.00	56000.0	739.423	2.4065	0.5823	0.00	73.24	0.2500	0.0000	85.00	8198.20	2137.67	9.7814	213.213	708.016	36.169
222	22.100	813.00	56000.0	743.049	2.4206	0.5799	0.00	73.22	0.2500	0.0000	85.00	8269.17	2159.06	9.7812	214.529	711.406	36.343
223	22.200	811.00	56000.0	746.692	2.4349	0.5775	0.00	73.20	0.2500	0.0000	85.00	8340.48	2180.57	9.7810	215.852	714.812	36.521
224	22.300	809.00	56000.0	750.353	2.4493	0.5751	0.00	73.18	0.2500	0.0000	85.00	8412.14	2202.23	9.7807	217.182	718.235	36.701
225	22.400	807.00	56000.0	754.032	2.4637	0.5727	0.00	73.15	0.2500	0.0000	85.00	8484.13	2224.01	9.7805	218.519	721.675	36.884
226	22.500	805.00	56000.0	757.730	2.4783	0.5703	0.00	73.13	0.2500	0.0000	85.00	8556.47	2245.93	9.7803	219.862	725.131	37.071
227	22.600	803.00	56000.0	761.446	2.4930	0.5678	0.00	73.11	0.2500	0.0000	85.00	8629.16	2267.98	9.7801	221.213	728.605	37.261
228	22.700	801.00	56000.0	765.182	2.5078	0.5654	0.00	73.09	0.2500	0.0000	85.00	8702.19	2290.17	9.7799	222.571	732.097	37.454
229	22.800	799.00	56000.0	768.937	2.5227	0.5629	0.00	73.07	0.2500	0.0000	85.00	8775.58	2312.50	9.7796	223.936	735.607	37.650
230	22.900	797.00	56000.0	772.712	2.5377	0.5604	0.00	73.05	0.2500	0.0000	85.00	8849.31	2334.96	9.7794	225.309	739.135	37.849
231	23.000	795.00	56000.0	776.507	2.5528	0.5579	0.00	73.03	0.2500	0.0000	85.00	8923.40	2357.56	9.7792	226.689	742.681	38.051
232	23.100	793.00	56000.0	780.323	2.5681	0.5553	0.00	73.01	0.2500	0.0000	85.00	8997.85	2380.30	9.7789	228.077	746.247	38.257
233	23.200	791.00	56000.0	784.159	2.5834	0.5528	0.00	72.98	0.2500	0.0000	85.00	9072.65	2403.18	9.7787	229.472	749.832	38.466
234	23.300	789.00	56000.0	788.016	2.5989	0.5502	0.00	72.96	0.2500	0.0000	85.00	9147.81	2426.19	9.7785	230.875	753.436	38.679
235	23.400	787.00	56000.0	791.892	2.6145	0.5491	0.00	72.94	0.2500	0.0000	85.00	9223.34	2449.35	9.7783	232.286	757.057	38.832
236	23.500	785.00	56000.0	795.782	2.6301	0.5481	0.00	72.92	0.2500	0.0000	85.00	9299.23	2472.65	9.7780	233.702	760.692	38.983
237	23.600	783.00	56000.0	799.688	2.6459	0.5471	0.00	72.90	0.2500	0.0000	85.00	9375.48	2496.09	9.7778	235.124	764.342	39.136
238	23.700	781.00	56000.0	803.610	2.6618	0.5461	0.00	72.88	0.2500	0.0000	85.00	9452.09	2519.67	9.7776	236.553	768.005	39.293
239	23.800	779.00	56000.0	807.547	2.6778	0.5451	0.00	72.86	0.2500	0.0000	85.00	9529.08	2543.40	9.7773	237.988	771.683	39.452
240	23.900	777.00	56000.0	811.500	2.6939	0.5441	0.00	72.84	0.2500	0.0000	85.00	9606.43	2567.27	9.7771	239.429	775.375	39.614
241	24.000	775.00	56000.0	815.470	2.7101	0.5431	0.00	72.82	0.2500	0.0000	85.00	9684.15	2591.29	9.7768	240.877	779.082	39.778
242	24.100	773.00	56000.0	819.456	2.7264	0.5421	0.00	72.80	0.2500	0.0000	85.00	9762.25	2615.45	9.7766	242.331	782.805	39.946
243	24.200	771.00	56000.0	823.459	2.7428	0.5411	0.00	72.78	0.2500	0.0000	85.00	9840.71	2639.75	9.7764	243.792	786.544	40.117
244	24.300	769.00	56000.0	827.480	2.7594	0.5400	0.00	72.76	0.2500	0.0000	85.00	9919.56	2664.21	9.7761	245.259	790.298	40.290
245	24.400	767.00	56000.0	831.517	2.7760	0.5390	0.00	72.74	0.2500	0.0000	85.00	9998.77	2688.81	9.7759	246.734	794.068	40.466
246	24.500	765.00	56000.0	835.573	2.7928	0.5380	0.00	72.72	0.2500	0.0000	85.00	10078.37	2713.55	9.7756	248.215	797.854	40.646
247	24.600	763.00	56000.0	839.647	2.8097	0.5369	0.00	72.70	0.2500	0.0000	85.00	10158.34	2738.45	9.7754	249.703	801.658	40.828
248	24.700	761.00	56000.0	843.739	2.8267	0.5358	0.00	72.68	0.2500	0.0000	85.00	10238.70	2763.49	9.7751	251.198	805.478	41.013
249	24.800	759.00	56000.0	847.849	2.8438	0.5348	0.00	72.66	0.2500	0.0000	85.00	10319.44	2788.69	9.7749	252.701	809.315	41.201
250	24.900	757.00	56000.0	851.979	2.8610	0.5337	0.00	72.64	0.2500	0.0000	85.00	10400.56	2814.03	9.7746	254.211	813.170	41.393
251	25.000	755.00	56000.0	856.128	2.8784	0.5326	0.00	72.62	0.2500	0.0000	85.00	10482.07	2839.53	9.7744	255.728	817.043	41.587
252	25.100	753.00	56000.0	860.297	2.8959	0.5315	0.00	72.60	0.2500	0.0000	85.00	10563.97	2865.18	9.7741	257.252	820.933	41.784
253	25.200	751.00	56000.0	864.485	2.9136	0.5304	0.00	72.58	0.2500	0.0000	85.00	10646.26	2890.98	9.7739	258.784	824.842	41.985
254	25.300	749.00	56000.0	868.694	2.9313	0.5293	0.00	72.56	0.2500	0.0000	85.00	10728.94	2916.94	9.7736	260.324	828.770	42.188
255	25.400	747.00	56000.0	872.923	2.9492	0.5282	0.00	72.54	0.2500	0.0000	85.00	10812.01	2943.05	9.7734	261.872	832.717	42.395
256	25.500	745.00	56000.0	877.173	2.9673	0.5270	0.00	72.52	0.2500	0.0000	85.00	10895.48	2969.31	9.7731	263.427	836.683	42.604
257	25.600	743.00	56000.0	881.444	2.9855	0.5259	0.00	72.50	0.2500	0.0000	85.00	10979.35	2995.73	9.7729	264.991	840.668	42.817
258	25.700	741.00	56000.0	885.741	3.0018	0.5249	0.00	72.49	0.2500	0.0000	85.00	11063.62	3022.31	9.7726	266.564	844.678	43.128
259	25.800	739.00	56000.0	890.067	3.0165	0.5240	0.00	72.47	0.2500	0.0000	85.00	11148.29	3049.05	9.7723	268.147	848.715	43.394
260	25.900	737.00	56000.0	894.420	3.0312	0.5230	0.00	72.45	0.2500	0.0000	85.00	11233.36	3075.94	9.7721	269.740	852.776	43.662
261	26.000	735.00	56000.0	898.800	3.0461	0.5221	0.00	72.43	0.2500	0.0000	85.00	11318.84	3102.99	9.7718	271.342	856.863	43.932
262	26.100	733.00	56000.0	903.206	3.0610	0.5212	0.00	72.41	0.2500	0.0000	85.00	11404.73	3130.21	9.7716	272.955	860.975	44.205
263	26.200	731.00	56000.0	907.641	3.0760	0.5202	0.00	72.39	0.2500	0.0000	85.00	11491.04	3157.58	9.7713	274.577	865.112	44.480
264	26.300	729.00	56000.0	912.103	3.0911	0.5193	0.00	72.37	0.2500	0.0000	85.00	11577.76	3185.12	9.7710	276.210	869.275	44.758
265	26.400	727.00	56000.0	916.592	3.1064	0.5184	0.00	72.35	0.2500	0.0000	85.00	11664.89	3212.83	9.7708	277.852	873.464	45.037
266	26.500	725.00	56000.0	921.110	3.1217	0.5174	0.00	72.34	0.2500	0.0000	85.00	11752.45	3240.69	9.7705	279.505	877.679	45.319
267	26.600	723.00	56000.0	925.656	3.1371	0.5164	0.00	72.32	0.2500	0.0000	85.00	11840.43	3268.73	9.7702	281.167	881.921	45.604
268	26.700	721.00	56000.0	930.231	3.1526	0.5155	0.00	72.30	0.2500	0.0000	85.00	11928.83	3296.93	9.7699	282.841	886.189	45.890
269	26.800	719.00	56000.0	934.834	3.1682	0.5145	0.00	72.28	0.2500	0.0000	85.00	12017.67	3325.30	9.7697	284.524	890.484	46.179
270	26.900	717.00	56000.0	939.467	3.1839	0.5135	0.00	72.26	0.2500	0.0000	85.00	12106.93	3353.83	9.7694	286.218	894.806	46.471
271	27.000	715.00	56000.0	944.129	3.1997	0.5125	0.00	72.24	0.2500	0.0000	85.00	12196.63	3382.54	9.7691	287.923	899.155	46.764
272	27.100	713.00	56000.0	948.820	3.2156	0.5115	0.00	72.23	0.2500	0.0000	85.00	12286.76	3411.42	9.7688	289.638	903.531	47.060
273	27.200	711.00	56000.0	953.541	3.2316	0.5105	0.00	72.21	0.2500	0.0000	85.00	12377.33	3440.47	9.7686	291.364	907.936	47.359
274	27.300	709.00	56000.0	958.292	3.2477	0.5095	0.00	72.19	0.2500	0.0000	85.00	12468.35	3469.69	9.7683	293.101	912.368	47.660
275	27.400	707.00	56000.0	963.073	3.2639	0.5085	0.00	72.17	0.2500	0.0000	85.00	12559.81	3499.09	9.7680	294.848	916.828	47.963
276	27.500	705.00	56000.0	967.884	3.2802	0.5075	0.00	72.15	0.2500	0.0000	85.00	12651.71	3528.66	9.7677	296.607	921.317	48.269
277	27.600	703.00	56000.0	972.727	3.2966	0.5065	0.00	72.14	0.2500	0.0000	85.00	12744.07	3558.41	9.7674	298.376	925.834	48.577
278	27.700	701.00	56000.0	977.600	3.3131	0.5054	0.00	72.12	0.2500	0.0000	85.00	12836.88	3588.34	9.7672	300.157	930.380	48.887
279	27.800	699.00	56000.0	982.504	3.3297	0.5044	0.00	72.10	0.2500	0.0000	85.00	12930.15	3618.44	9.7669	301.949	934.955	49.200
280	27.900	697.00	56000.0	987.440	3.3465	0.5033	0.00	72.08	0.2500	0.0000	85.00	13023.87	3648.73	9.7666	303.753	939.559	49.516
281	28.000	695.00	56000.0	992.407	3.3633	0.5023	0.00	72.07	0.2500	0.0000	85.00	13118.06	3679.19	9.7663	305.567	944.193	49.833
282	28.100	693.00	56000.0	997.407	3.3802	0.5012	0.00	72.05	0.2500	0.0000	85.00	13212.71	3709.84	9.7660	307.394	948.857	50.154
283	28.200	691.00	56000.0	1002.438	3.3973	0.5002	0.00	72.03	0.2500	0.0000	85.00	13307.83	3740.67	9.7657	309.232	953.550	50.476
284	28.300	689.00	56000.0	1007.501	3.4145	0.4997	0.00	72.02	0.2500	0.0000	85.00	13403.42	3771.69	9.7654	311.081	958.273	50.775
285	28.400	687.00	56000.0	1012.593	3.4317	0.4994	0.00	72.00	0.2500	0.0000	85.00	13499.48	3802.89	9.7651	312.941	963.023	51.071
286	28.500	685.00	56000.0	1017.715	3.4491	0.4991	0.00	71.98	0.2500	0.0000	85.00	13596.02	3834.27	9.7648	314.811	967.801	51.370
287	28.600	683.00	56000.0	1022.867	3.4665	0.4987	0.00	71.96	0.2500	0.0000	85.00	13693.04	3865.85	9.7645	316.693	972.606	51.671
288	28.700	681.00	56000.0	1028.050	3.4841	0.4984	0.00	71.95	0.2500	0.0000	85.00	13790.54	3897.61	9.7642	318.586	977.440	51.975
289	28.800	679.00	56000.0	1033.262	3.5018	0.4980	0.00	71.93	0.2500	0.0000	85.00	13888.53	3929.57	9.7639	320.490	982.302	52.282
290	28.900	677.00	56000.0	1038.506	3.5195	0.4977	0.00	71.91	0.2500	0.0000	85.00	13987.01	3961.71	9.7636	322.405	987.193	52.591
291	29.000	675.00	56000.0	1043.781	3.5374	0.4974	0.00	71.90	0.2500	0.0000	85.00	14085.97	3994.05	9.7633	324.332	992.112	52.902
292	29.100	673.00	56000.0	1049.086	3.5554	0.4970	0.00	71.88	0.2500	0.0000	85.00	14185.43	4026.58	9.7630	326.270	997.061	53.216
293	29.200	671.00	56000.0	1054.424	3.5735	0.4967	0.00	71.86	0.2500	0.0000	85.00	14285.38	4059.30	9.7627	328.219	1002.039	53.533
294	29.300	669.00	56000.0	1059.793	3.5917	0.4963	0.00	71.85	0.2500	0.0000	85.00	14385.84	4092.22	9.7624	330.180	1007.047	53.852
295	29.400	667.00	56000.0	1065.194	3.6100	0.4960	0.00	71.83	0.2500	0.0000	85.00	14486.79	4125.34	9.7621	332.153	1012.084	54.174
296	29.500	665.00	56000.0	1070.628	3.6284	0.4956	0.00	71.81	0.2500	0.0000	85.00	14588.25	4158.65	9.7618	334.137	1017.151	54.499
297	29.600	663.00	56000.0	1076.094	3.6469	0.4953	0.00	71.80	0.2500	0.0000	85.00	14690.22	4192.16	9.7615	336.133	1022.249	54.826
298	29.700	661.00	56000.0	1081.593	3.6656	0.4949	0.00	71.78	0.2500	0.0000	85.00	14792.70	4225.88	9.7612	338.141	1027.378	55.156
299	29.800	659.00	56000.0	1087.126	3.6843	0.4945	0.00	71.77	0.2500	0.0000	85.00	14895.70	4259.79	9.7609	340.162	1032.537	55.488
300	29.900	657.00	56000.0	1092.691	3.7032	0.4942	0.00	71.75	0.2500	0.0000	85.00	14999.21	4293.91	9.7605	342.194	1037.727	55.823
301	30.000	655.00	56000.0	1098.290	3.7221	0.4938	0.00	71.73	0.2500	0.0000	85.00	15103.24	4328.23	9.7602	344.239	1042.948	56.161
