N	t(c)	m(kg)	P(H)	V(m/s)	M	Cxa	alpha(grad)	theta_c(grad)	Cya_alpha	omega_z(1/s)	theta(grad)	y(m)	x(m)	g(m/s2)	x_dotc(m/s)	y_dotc(m/s)	V_dot(m/s2)
1	0.000	1255.00	56000.0	10.000	0.0294	0.3000	0.00	85.00	0.2500	0.0000	85.00	0.00	0.00	9.8066	0.872	9.962	34.849
2	0.100	1253.00	56000.0	13.489	0.0396	0.3000	0.36	84.64	0.2500	0.0000	85.00	1.17	0.11	9.8066	1.261	13.430	34.922
3	0.200	1251.00	56000.0	16.984	0.0499	0.3000	0.58	84.42	0.2500	0.0000	85.00	2.69	0.25	9.8066	1.650	16.904	34.992
4	0.300	1249.00	56000.0	20.487	0.0602	0.3000	0.72	84.28	0.2500	0.0000	85.00	4.55	0.44	9.8066	2.041	20.385	35.060
5	0.400	1247.00	56000.0	23.996	0.0705	0.3000	0.82	84.18	0.2500	0.0000	85.00	6.76	0.66	9.8066	2.432	23.873	35.127
6	0.500	1245.00	56000.0	27.512	0.0809	0.3000	0.89	84.11	0.2500	0.0000	85.00	9.32	0.93	9.8066	2.823	27.367	35.194
7	0.600	1243.00	56000.0	31.035	0.0912	0.3000	0.95	84.05	0.2500	0.0000	85.00	12.24	1.23	9.8066	3.215	30.868	35.259
8	0.700	1241.00	56000.0	34.564	0.1016	0.3000	0.99	84.01	0.2500	0.0000	85.00	15.50	1.57	9.8066	3.608	34.375	35.324
9	0.800	1239.00	56000.0	38.100	0.1120	0.3000	1.03	83.97	0.2500	0.0000	85.00	19.11	1.95	9.8066	4.001	37.889	35.388
10	0.900	1237.00	56000.0	41.642	0.1224	0.3000	1.06	83.94	0.2500	0.0000	85.00	23.08	2.37	9.8066	4.394	41.409	35.452
11	1.000	1235.00	56000.0	45.190	0.1328	0.3000	1.08	83.92	0.2500	0.0000	85.00	27.39	2.83	9.8066	4.788	44.936	35.515
12	1.100	1233.00	56000.0	48.745	0.1433	0.3000	1.10	83.90	0.2500	0.0000	85.00	32.06	3.33	9.8066	5.183	48.468	35.577
13	1.200	1231.00	56000.0	52.306	0.1538	0.3000	1.12	83.88	0.2500	0.0000	85.00	37.09	3.87	9.8065	5.578	52.007	35.638
14	1.300	1229.00	56000.0	55.872	0.1643	0.3000	1.14	83.86	0.2500	0.0000	85.00	42.46	4.44	9.8065	5.974	55.552	35.699
15	1.400	1227.00	56000.0	59.445	0.1748	0.3000	1.15	83.85	0.2500	0.0000	85.00	48.20	5.06	9.8065	6.370	59.103	35.759
16	1.500	1225.00	56000.0	63.024	0.1853	0.3000	1.16	83.84	0.2500	0.0000	85.00	54.28	5.72	9.8065	6.766	62.660	35.818
17	1.600	1223.00	56000.0	66.609	0.1959	0.3000	1.17	83.83	0.2500	0.0000	85.00	60.73	6.41	9.8065	7.163	66.223	35.877
18	1.700	1221.00	56000.0	70.199	0.2064	0.3000	1.18	83.82	0.2500	0.0000	85.00	67.53	7.15	9.8064	7.561	69.791	35.935
19	1.800	1219.00	56000.0	73.796	0.2170	0.3000	1.19	83.81	0.2500	0.0000	85.00	74.69	7.93	9.8064	7.958	73.365	35.992
20	1.900	1217.00	56000.0	77.398	0.2277	0.3000	1.20	83.80	0.2500	0.0000	85.00	82.20	8.74	9.8064	8.357	76.945	36.048
21	2.000	1215.00	56000.0	81.005	0.2383	0.3000	1.20	83.80	0.2500	0.0000	85.00	90.08	9.60	9.8064	8.755	80.531	36.104
22	2.100	1213.00	56000.0	84.619	0.2489	0.3000	1.21	83.79	0.2500	0.0000	85.00	98.31	10.49	9.8063	9.154	84.122	36.159
23	2.200	1211.00	56000.0	88.237	0.2596	0.3000	1.22	83.78	0.2500	0.0000	85.00	106.90	11.43	9.8063	9.554	87.719	36.214
24	2.300	1209.00	56000.0	91.861	0.2703	0.3000	1.22	83.78	0.2500	0.0000	85.00	115.85	12.40	9.8063	9.954	91.320	36.267
25	2.400	1207.00	56000.0	95.491	0.2810	0.3000	1.22	83.78	0.2500	0.0000	85.00	125.16	13.42	9.8063	10.354	94.928	36.320
26	2.500	1205.00	56000.0	99.125	0.2917	0.3000	1.23	83.77	0.2500	0.0000	85.00	134.84	14.47	9.8062	10.754	98.540	36.372
27	2.600	1203.00	56000.0	102.765	0.3025	0.3000	1.23	83.77	0.2500	0.0000	85.00	144.87	15.57	9.8062	11.155	102.158	36.424
28	2.700	1201.00	56000.0	106.410	0.3132	0.3000	1.23	83.77	0.2500	0.0000	85.00	155.27	16.71	9.8062	11.556	105.781	36.475
29	2.800	1199.00	56000.0	110.060	0.3240	0.3000	1.24	83.76	0.2500	0.0000	85.00	166.03	17.88	9.8061	11.958	109.408	36.525
30	2.900	1197.00	56000.0	113.715	0.3348	0.3000	1.24	83.76	0.2500	0.0000	85.00	177.15	19.10	9.8061	12.360	113.041	36.574
31	3.000	1195.00	56000.0	117.375	0.3457	0.3000	1.24	83.76	0.2500	0.0000	85.00	188.64	20.35	9.8061	12.762	116.679	36.622
32	3.100	1193.00	56000.0	121.039	0.3565	0.3000	1.24	83.76	0.2500	0.0000	85.00	200.49	21.65	9.8060	13.165	120.321	36.670
33	3.200	1191.00	56000.0	124.709	0.3674	0.3000	1.25	83.75	0.2500	0.0000	85.00	212.70	22.99	9.8060	13.567	123.969	36.717
34	3.300	1189.00	56000.0	128.383	0.3782	0.3000	1.25	83.75	0.2500	0.0000	85.00	225.28	24.36	9.8060	13.970	127.620	36.764
35	3.400	1187.00	56000.0	132.061	0.3891	0.3000	1.25	83.75	0.2500	0.0000	85.00	238.23	25.78	9.8059	14.374	131.277	36.809
36	3.500	1185.00	56000.0	135.745	0.4000	0.3000	1.25	83.75	0.2500	0.0000	85.00	251.54	27.24	9.8059	14.777	134.938	36.854
37	3.600	1183.00	56000.0	139.432	0.4110	0.3000	1.25	83.75	0.2500	0.0000	85.00	265.21	28.74	9.8058	15.181	138.603	36.898
38	3.700	1181.00	56000.0	143.124	0.4219	0.3000	1.25	83.75	0.2500	0.0000	85.00	279.26	30.27	9.8058	15.585	142.273	36.942
39	3.800	1179.00	56000.0	146.821	0.4329	0.3000	1.25	83.75	0.2500	0.0000	85.00	293.67	31.85	9.8057	15.989	145.947	36.985
40	3.900	1177.00	56000.0	150.521	0.4439	0.3000	1.25	83.75	0.2500	0.0000	85.00	308.45	33.47	9.8057	16.394	149.626	37.027
41	4.000	1175.00	56000.0	154.226	0.4549	0.3000	1.25	83.75	0.2500	0.0000	85.00	323.59	35.13	9.8057	16.799	153.308	37.068
42	4.100	1173.00	56000.0	157.935	0.4659	0.3000	1.25	83.75	0.2500	0.0000	85.00	339.11	36.83	9.8056	17.204	156.995	37.109
43	4.200	1171.00	56000.0	161.648	0.4769	0.3000	1.25	83.75	0.2500	0.0000	85.00	354.99	38.57	9.8056	17.609	160.686	37.148
44	4.300	1169.00	56000.0	165.364	0.4880	0.3000	1.25	83.75	0.2500	0.0000	85.00	371.25	40.35	9.8055	18.014	164.380	37.188
45	4.400	1167.00	56000.0	169.085	0.4991	0.3000	1.25	83.75	0.2500	0.0000	85.00	387.87	42.18	9.8055	18.419	168.079	37.226
46	4.500	1165.00	56000.0	172.810	0.5102	0.3000	1.25	83.75	0.2500	0.0000	85.00	404.86	44.04	9.8054	18.825	171.781	37.264
47	4.600	1163.00	56000.0	176.538	0.5213	0.3000	1.25	83.75	0.2500	0.0000	85.00	422.22	45.94	9.8053	19.231	175.487	37.301
48	4.700	1161.00	56000.0	180.270	0.5324	0.3000	1.25	83.75	0.2500	0.0000	85.00	439.96	47.88	9.8053	19.636	179.197	37.337
49	4.800	1159.00	56000.0	184.005	0.5435	0.3000	1.25	83.75	0.2500	0.0000	85.00	458.06	49.87	9.8052	20.042	182.910	37.373
50	4.900	1157.00	56000.0	187.743	0.5547	0.3047	1.25	83.75	0.2500	0.0000	85.00	476.54	51.89	9.8052	20.448	186.626	37.388
51	5.000	1155.00	56000.0	191.481	0.5659	0.3159	1.25	83.75	0.2500	0.0000	85.00	495.39	53.96	9.8051	20.854	190.342	37.374
52	5.100	1153.00	56000.0	195.218	0.5770	0.3270	1.25	83.75	0.2500	0.0000	85.00	514.61	56.06	9.8051	21.259	194.057	37.355
53	5.200	1151.00	56000.0	198.952	0.5882	0.3382	1.25	83.75	0.2500	0.0000	85.00	534.20	58.21	9.8050	21.664	197.769	37.332
54	5.300	1149.00	56000.0	202.684	0.5994	0.3494	1.25	83.75	0.2500	0.0000	85.00	554.16	60.40	9.8049	22.068	201.479	37.305
55	5.400	1147.00	56000.0	206.413	0.6105	0.3605	1.25	83.75	0.2500	0.0000	85.00	574.50	62.62	9.8049	22.472	205.186	37.272
56	5.500	1145.00	56000.0	210.138	0.6217	0.3717	1.25	83.75	0.2500	0.0000	85.00	595.20	64.89	9.8048	22.875	208.889	37.235
57	5.600	1143.00	56000.0	213.860	0.6329	0.3829	1.25	83.75	0.2500	0.0000	85.00	616.27	67.20	9.8047	23.277	212.589	37.193
58	5.700	1141.00	56000.0	217.577	0.6440	0.3940	1.25	83.75	0.2500	0.0000	85.00	637.72	69.55	9.8047	23.679	216.284	37.147
59	5.800	1139.00	56000.0	221.289	0.6552	0.4052	1.25	83.75	0.2500	0.0000	85.00	659.53	71.93	9.8046	24.079	219.975	37.096
60	5.900	1137.00	56000.0	224.996	0.6663	0.4163	1.25	83.75	0.2500	0.0000	85.00	681.71	74.36	9.8045	24.479	223.660	37.039
61	6.000	1135.00	56000.0	228.696	0.6775	0.4275	1.25	83.75	0.2500	0.0000	85.00	704.26	76.83	9.8045	24.878	227.339	36.978
62	6.100	1133.00	56000.0	232.391	0.6886	0.4386	1.24	83.76	0.2500	0.0000	85.00	727.18	79.34	9.8044	25.276	231.012	36.912
63	6.200	1131.00	56000.0	236.078	0.6997	0.4497	1.24	83.76	0.2500	0.0000	85.00	750.47	81.88	9.8043	25.673	234.678	36.840
64	6.300	1129.00	56000.0	239.759	0.7108	0.4608	1.24	83.76	0.2500	0.0000	85.00	774.12	84.47	9.8043	26.069	238.337	36.764
65	6.400	1127.00	56000.0	243.431	0.7219	0.4719	1.24	83.76	0.2500	0.0000	85.00	798.13	87.10	9.8042	26.463	241.988	36.682
66	6.500	1125.00	56000.0	247.095	0.7330	0.4830	1.24	83.76	0.2500	0.0000	85.00	822.51	89.76	9.8041	26.857	245.631	36.596
67	6.600	1123.00	56000.0	250.750	0.7440	0.4940	1.24	83.76	0.2500	0.0000	85.00	847.26	92.47	9.8040	27.249	249.265	36.504
68	6.700	1121.00	56000.0	254.395	0.7550	0.5050	1.24	83.76	0.2500	0.0000	85.00	872.37	95.21	9.8040	27.640	252.889	36.407
69	6.800	1119.00	56000.0	258.031	0.7661	0.5161	1.24	83.76	0.2500	0.0000	85.00	897.84	98.00	9.8039	28.029	256.504	36.305
70	6.900	1117.00	56000.0	261.656	0.7770	0.5270	1.23	83.77	0.2500	0.0000	85.00	923.67	100.82	9.8038	28.417	260.108	36.198
71	7.000	1115.00	56000.0	265.270	0.7880	0.5380	1.23	83.77	0.2500	0.0000	85.00	949.86	103.68	9.8037	28.804	263.702	36.086
72	7.100	1113.00	56000.0	268.873	0.7990	0.5490	1.23	83.77	0.2500	0.0000	85.00	976.41	106.58	9.8036	29.189	267.284	35.968
73	7.200	1111.00	56000.0	272.461	0.8099	0.5648	1.23	83.77	0.2451	0.0000	85.00	1003.31	109.52	9.8036	29.572	270.852	35.804
74	7.300	1109.00	56000.0	276.033	0.8208	0.5811	1.23	83.77	0.2396	0.0000	85.00	1030.58	112.50	9.8035	29.953	274.403	35.628
75	7.400	1107.00	56000.0	279.586	0.8316	0.5974	1.23	83.77	0.2342	0.0000	85.00	1058.20	115.51	9.8034	30.332	277.936	35.445
76	7.500	1105.00	56000.0	283.121	0.8424	0.6136	1.23	83.77	0.2288	0.0000	85.00	1086.17	118.56	9.8033	30.709	281.451	35.255
77	7.600	1103.00	56000.0	286.637	0.8531	0.6297	1.23	83.77	0.2234	0.0000	85.00	1114.49	121.65	9.8032	31.084	284.947	35.059
78	7.700	1101.00	56000.0	290.133	0.8638	0.6457	1.22	83.78	0.2181	0.0000	85.00	1143.15	124.78	9.8031	31.456	288.423	34.856
79	7.800	1099.00	56000.0	293.608	0.8744	0.6617	1.22	83.78	0.2128	0.0000	85.00	1172.17	127.94	9.8030	31.826	291.878	34.647
80	7.900	1097.00	56000.0	297.062	0.8850	0.6775	1.22	83.78	0.2075	0.0000	85.00	1201.53	131.14	9.8029	32.193	295.312	34.431
81	8.000	1095.00	56000.0	300.494	0.8956	0.6933	1.22	83.78	0.2022	0.0000	85.00	1231.23	134.38	9.8029	32.558	298.725	34.209
82	8.100	1093.00	56000.0	303.903	0.9060	0.7085	1.22	83.78	0.2060	0.0000	85.00	1261.28	137.66	9.8028	32.920	302.115	33.987
83	8.200	1091.00	56000.0	307.291	0.9165	0.7230	1.22	83.78	0.2165	0.0000	85.00	1291.66	140.97	9.8027	33.279	305.484	33.765
84	8.300	1089.00	56000.0	310.656	0.9268	0.7376	1.22	83.78	0.2268	0.0000	85.00	1322.37	144.31	9.8026	33.636	308.830	33.537
85	8.400	1087.00	56000.0	313.998	0.9371	0.7520	1.21	83.79	0.2371	0.0000	85.00	1353.42	147.69	9.8025	33.989	312.153	33.304
86	8.500	1085.00	56000.0	317.316	0.9474	0.7663	1.21	83.79	0.2474	0.0000	85.00	1384.80	151.11	9.8024	34.339	315.453	33.065
87	8.600	1083.00	56000.0	320.611	0.9576	0.7806	1.21	83.79	0.2576	0.0000	85.00	1416.51	154.56	9.8023	34.687	318.729	32.822
88	8.700	1081.00	56000.0	323.880	0.9677	0.7948	1.21	83.79	0.2677	0.0000	85.00	1448.55	158.05	9.8022	35.031	321.980	32.574
89	8.800	1079.00	56000.0	327.125	0.9778	0.8089	1.21	83.79	0.2778	0.0000	85.00	1480.91	161.57	9.8021	35.371	325.207	32.321
90	8.900	1077.00	56000.0	330.344	0.9878	0.8229	1.21	83.79	0.2878	0.0000	85.00	1513.59	165.12	9.8020	35.709	328.409	32.064
91	9.000	1075.00	56000.0	333.537	0.9977	0.8368	1.20	83.80	0.2977	0.0000	85.00	1546.59	168.71	9.8019	36.043	331.584	31.803
92	9.100	1073.00	56000.0	336.710	1.0076	0.8425	1.20	83.80	0.3013	0.0000	85.00	1579.91	172.33	9.8018	36.374	334.739	31.641
93	9.200	1071.00	56000.0	339.867	1.0174	0.8458	1.20	83.80	0.3029	0.0000	85.00	1613.54	175.98	9.8017	36.703	337.879	31.509
94	9.300	1069.00	56000.0	343.011	1.0272	0.8491	1.20	83.80	0.3045	0.0000	85.00	1647.48	179.67	9.8016	37.031	341.006	31.375
95	9.400	1067.00	56000.0	346.142	1.0370	0.8523	1.20	83.80	0.3062	0.0000	85.00	1681.74	183.39	9.8015	37.357	344.120	31.241
96	9.500	1065.00	56000.0	349.259	1.0468	0.8556	1.19	83.81	0.3078	0.0000	85.00	1716.31	187.14	9.8014	37.681	347.221	31.105
97	9.600	1063.00	56000.0	352.363	1.0565	0.8588	1.19	83.81	0.3094	0.0000	85.00	1751.18	190.93	9.8012	38.003	350.308	30.969
98	9.700	1061.00	56000.0	355.453	1.0662	0.8616	1.19	83.81	0.3006	0.0000	85.00	1786.37	194.74	9.8011	38.323	353.381	30.839
99	9.800	1059.00	56000.0	358.531	1.0759	0.8640	1.19	83.81	0.2861	0.0000	85.00	1821.86	198.59	9.8010	38.643	356.442	30.713
100	9.900	1057.00	56000.0	361.596	1.0856	0.8664	1.19	83.81	0.2716	0.0000	85.00	1857.66	202.47	9.8009	38.961	359.491	30.586
101	10.000	1055.00	56000.0	364.648	1.0952	0.8688	1.18	83.82	0.2572	0.0000	85.00	1893.76	206.38	9.8008	39.277	362.526	30.459
102	10.100	1053.00	56000.0	367.690	1.1048	0.8681	1.18	83.82	0.2500	0.0000	85.00	1930.16	210.33	9.8007	39.593	365.552	30.378
103	10.200	1051.00	56000.0	370.726	1.1144	0.8642	1.18	83.82	0.2500	0.0000	85.00	1966.87	214.30	9.8006	39.908	368.572	30.345
104	10.300	1049.00	56000.0	373.759	1.1240	0.8604	1.18	83.82	0.2500	0.0000	85.00	2003.88	218.31	9.8005	40.223	371.588	30.314
105	10.400	1047.00	56000.0	376.789	1.1336	0.8565	1.18	83.82	0.2500	0.0000	85.00	2041.19	222.35	9.8004	40.536	374.602	30.285
106	10.500	1045.00	56000.0	379.816	1.1433	0.8527	1.17	83.83	0.2500	0.0000	85.00	2078.80	226.41	9.8002	40.850	377.613	30.257
107	10.600	1043.00	56000.0	382.840	1.1529	0.8488	1.17	83.83	0.2500	0.0000	85.00	2116.71	230.51	9.8001	41.162	380.621	30.231
108	10.700	1041.00	56000.0	385.862	1.1625	0.8450	1.17	83.83	0.2500	0.0000	85.00	2154.92	234.65	9.8000	41.474	383.627	30.207
109	10.800	1039.00	56000.0	388.882	1.1721	0.8411	1.17	83.83	0.2500	0.0000	85.00	2193.43	238.81	9.7999	41.786	386.630	30.185
110	10.900	1037.00	56000.0	391.899	1.1818	0.8373	1.17	83.83	0.2500	0.0000	85.00	2232.25	243.00	9.7998	42.097	389.632	30.164
111	11.000	1035.00	56000.0	394.915	1.1914	0.8334	1.16	83.84	0.2500	0.0000	85.00	2271.36	247.23	9.7996	42.408	392.631	30.146
112	11.100	1033.00	56000.0	397.928	1.2011	0.8297	1.16	83.84	0.2500	0.0000	85.00	2310.77	251.49	9.7995	42.718	395.629	30.128
113	11.200	1031.00	56000.0	400.940	1.2107	0.8268	1.16	83.84	0.2500	0.0000	85.00	2350.49	255.77	9.7994	43.027	398.624	30.096
114	11.300	1029.00	56000.0	403.948	1.2204	0.8239	1.16	83.84	0.2500	0.0000	85.00	2390.50	260.09	9.7993	43.337	401.616	30.066
115	11.400	1027.00	56000.0	406.953	1.2301	0.8210	1.16	83.84	0.2500	0.0000	85.00	2430.81	264.44	9.7992	43.645	404.606	30.038
116	11.500	1025.00	56000.0	409.955	1.2397	0.8181	1.15	83.85	0.2500	0.0000	85.00	2471.42	268.82	9.7990	43.953	407.592	30.012
117	11.600	1023.00	56000.0	412.955	1.2494	0.8152	1.15	83.85	0.2500	0.0000	85.00	2512.33	273.23	9.7989	44.260	410.576	29.987
118	11.700	1021.00	56000.0	415.953	1.2591	0.8123	1.15	83.85	0.2500	0.0000	85.00	2553.53	277.67	9.7988	44.567	413.558	29.964
119	11.800	1019.00	56000.0	418.948	1.2688	0.8094	1.15	83.85	0.2500	0.0000	85.00	2595.04	282.14	9.7986	44.874	416.538	29.942
120	11.900	1017.00	56000.0	421.941	1.2785	0.8064	1.15	83.85	0.2500	0.0000	85.00	2636.84	286.65	9.7985	45.179	419.516	29.923
121	12.000	1015.00	56000.0	424.933	1.2882	0.8035	1.14	83.86	0.2500	0.0000	85.00	2678.94	291.18	9.7984	45.485	422.491	29.905
122	12.100	1013.00	56000.0	427.922	1.2980	0.8006	1.14	83.86	0.2500	0.0000	85.00	2721.34	295.74	9.7983	45.790	425.465	29.889
123	12.200	1011.00	56000.0	430.909	1.3077	0.7992	1.14	83.86	0.2500	0.0000	85.00	2764.04	300.34	9.7981	46.094	428.437	29.845
124	12.300	1009.00	56000.0	433.891	1.3174	0.7983	1.14	83.86	0.2500	0.0000	85.00	2807.03	304.96	9.7980	46.398	431.403	29.793
125	12.400	1007.00	56000.0	436.868	1.3271	0.7973	1.14	83.86	0.2500	0.0000	85.00	2850.32	309.62	9.7979	46.701	434.364	29.743
126	12.500	1005.00	56000.0	439.840	1.3369	0.7963	1.13	83.87	0.2500	0.0000	85.00	2893.90	314.30	9.7977	47.003	437.321	29.694
127	12.600	1003.00	56000.0	442.807	1.3466	0.7953	1.13	83.87	0.2500	0.0000	85.00	2937.78	319.02	9.7976	47.304	440.273	29.647
128	12.700	1001.00	56000.0	445.769	1.3563	0.7944	1.13	83.87	0.2500	0.0000	85.00	2981.95	323.76	9.7975	47.605	443.220	29.600
129	12.800	999.00	56000.0	448.727	1.3661	0.7934	1.13	83.87	0.2500	0.0000	85.00	3026.42	328.54	9.7973	47.904	446.162	29.555
130	12.900	997.00	56000.0	451.680	1.3758	0.7924	1.13	83.87	0.2500	0.0000	85.00	3071.19	333.34	9.7972	48.203	449.101	29.512
131	13.000	995.00	56000.0	454.629	1.3856	0.7914	1.12	83.88	0.2500	0.0000	85.00	3116.24	338.18	9.7970	48.502	452.034	29.469
132	13.100	993.00	56000.0	457.574	1.3953	0.7905	1.12	83.88	0.2500	0.0000	85.00	3161.59	343.04	9.7969	48.799	454.964	29.428
133	13.200	991.00	56000.0	460.516	1.4050	0.7888	1.12	83.88	0.2500	0.0000	85.00	3207.24	347.94	9.7968	49.097	457.891	29.404
134	13.300	989.00	56000.0	463.455	1.4148	0.7865	1.12	83.88	0.2500	0.0000	85.00	3253.17	352.86	9.7966	49.393	460.816	29.394
135	13.400	987.00	56000.0	466.394	1.4246	0.7843	1.12	83.88	0.2500	0.0000	85.00	3299.40	357.82	9.7965	49.689	463.740	29.387
136	13.500	985.00	56000.0	469.333	1.4344	0.7820	1.11	83.89	0.2500	0.0000	85.00	3345.92	362.80	9.7963	49.985	466.663	29.381
137	13.600	983.00	56000.0	472.271	1.4442	0.7797	1.11	83.89	0.2500	0.0000	85.00	3392.73	367.82	9.7962	50.281	469.586	29.377
138	13.700	981.00	56000.0	475.208	1.4540	0.7774	1.11	83.89	0.2500	0.0000	85.00	3439.84	372.86	9.7960	50.577	472.509	29.375
139	13.800	979.00	56000.0	478.146	1.4638	0.7751	1.11	83.89	0.2500	0.0000	85.00	3487.23	377.93	9.7959	50.872	475.432	29.375
140	13.900	977.00	56000.0	481.084	1.4737	0.7728	1.11	83.89	0.2500	0.0000	85.00	3534.92	383.03	9.7958	51.167	478.355	29.377
141	14.000	975.00	56000.0	484.021	1.4835	0.7705	1.10	83.90	0.2500	0.0000	85.00	3582.91	388.16	9.7956	51.461	481.278	29.381
142	14.100	973.00	56000.0	486.960	1.4934	0.7682	1.10	83.90	0.2500	0.0000	85.00	3631.18	393.32	9.7955	51.756	484.202	29.387
143	14.200	971.00	56000.0	489.899	1.5033	0.7659	1.10	83.90	0.2500	0.0000	85.00	3679.75	398.51	9.7953	52.050	487.126	29.395
144	14.300	969.00	56000.0	492.839	1.5133	0.7636	1.10	83.90	0.2500	0.0000	85.00	3728.60	403.73	9.7952	52.344	490.051	29.405
145	14.400	967.00	56000.0	495.780	1.5232	0.7612	1.09	83.91	0.2500	0.0000	85.00	3777.76	408.98	9.7950	52.638	492.978	29.416
146	14.500	965.00	56000.0	498.722	1.5332	0.7589	1.09	83.91	0.2500	0.0000	85.00	3827.20	414.26	9.7949	52.932	495.905	29.430
147	14.600	963.00	56000.0	501.666	1.5432	0.7566	1.09	83.91	0.2500	0.0000	85.00	3876.94	419.57	9.7947	53.226	498.834	29.446
148	14.700	961.00	56000.0	504.612	1.5532	0.7542	1.09	83.91	0.2500	0.0000	85.00	3926.97	424.91	9.7945	53.520	501.765	29.464
149	14.800	959.00	56000.0	507.559	1.5633	0.7519	1.09	83.91	0.2500	0.0000	85.00	3977.29	430.27	9.7944	53.814	504.698	29.484
150	14.900	957.00	56000.0	510.508	1.5733	0.7496	1.08	83.92	0.2500	0.0000	85.00	4027.91	435.67	9.7942	54.108	507.633	29.506
151	15.000	955.00	56000.0	513.460	1.5834	0.7472	1.08	83.92	0.2500	0.0000	85.00	4078.82	441.10	9.7941	54.401	510.570	29.530
152	15.100	953.00	56000.0	516.415	1.5935	0.7448	1.08	83.92	0.2500	0.0000	85.00	4130.02	446.55	9.7939	54.695	513.510	29.556
153	15.200	951.00	56000.0	519.372	1.6037	0.7425	1.08	83.92	0.2500	0.0000	85.00	4181.52	452.03	9.7938	54.989	516.452	29.585
154	15.300	949.00	56000.0	522.332	1.6139	0.7401	1.08	83.92	0.2500	0.0000	85.00	4233.31	457.55	9.7936	55.283	519.398	29.615
155	15.400	947.00	56000.0	525.295	1.6241	0.7377	1.07	83.93	0.2500	0.0000	85.00	4285.40	463.09	9.7934	55.577	522.346	29.648
156	15.500	945.00	56000.0	528.261	1.6343	0.7353	1.07	83.93	0.2500	0.0000	85.00	4337.78	468.66	9.7933	55.871	525.298	29.683
157	15.600	943.00	56000.0	531.231	1.6446	0.7329	1.07	83.93	0.2500	0.0000	85.00	4390.46	474.27	9.7931	56.166	528.254	29.720
158	15.700	941.00	56000.0	534.205	1.6549	0.7305	1.07	83.93	0.2500	0.0000	85.00	4443.43	479.90	9.7930	56.460	531.213	29.759
159	15.800	939.00	56000.0	537.183	1.6652	0.7281	1.06	83.94	0.2500	0.0000	85.00	4496.70	485.56	9.7928	56.755	534.177	29.801
160	15.900	937.00	56000.0	540.166	1.6756	0.7257	1.06	83.94	0.2500	0.0000	85.00	4550.27	491.25	9.7926	57.050	537.145	29.845
161	16.000	935.00	56000.0	543.152	1.6860	0.7233	1.06	83.94	0.2500	0.0000	85.00	4604.13	496.97	9.7925	57.345	540.117	29.891
162	16.100	933.00	56000.0	546.144	1.6965	0.7208	1.06	83.94	0.2500	0.0000	85.00	4658.29	502.72	9.7923	57.640	543.094	29.939
163	16.200	931.00	56000.0	549.140	1.7069	0.7184	1.06	83.94	0.2500	0.0000	85.00	4712.75	508.50	9.7921	57.936	546.075	29.989
164	16.300	929.00	56000.0	552.142	1.7174	0.7159	1.05	83.95	0.2500	0.0000	85.00	4767.51	514.30	9.7920	58.232	549.062	30.042
165	16.400	927.00	56000.0	555.149	1.7280	0.7135	1.05	83.95	0.2500	0.0000	85.00	4822.56	520.14	9.7918	58.528	552.055	30.097
166	16.500	925.00	56000.0	558.161	1.7386	0.7110	1.05	83.95	0.2500	0.0000	85.00	4877.92	526.01	9.7916	58.825	555.053	30.155
167	16.600	923.00	56000.0	561.180	1.7492	0.7085	1.05	83.95	0.2500	0.0000	85.00	4933.57	531.91	9.7914	59.122	558.057	30.215
168	16.700	921.00	56000.0	564.204	1.7599	0.7060	1.05	83.95	0.2500	0.0000	85.00	4989.53	537.83	9.7913	59.420	561.067	30.277
169	16.800	919.00	56000.0	567.235	1.7706	0.7035	1.04	83.96	0.2500	0.0000	85.00	5045.78	543.79	9.7911	59.718	564.083	30.342
170	16.900	917.00	56000.0	570.273	1.7814	0.7010	1.04	83.96	0.2500	0.0000	85.00	5102.34	549.78	9.7909	60.016	567.106	30.409
171	17.000	915.00	56000.0	573.317	1.7922	0.6985	1.04	83.96	0.2500	0.0000	85.00	5159.21	555.79	9.7908	60.315	570.136	30.478
172	17.100	913.00	56000.0	576.369	1.8030	0.6960	1.04	83.96	0.2500	0.0000	85.00	5216.37	561.84	9.7906	60.615	573.172	30.550
173	17.200	911.00	56000.0	579.427	1.8139	0.6934	1.03	83.97	0.2500	0.0000	85.00	5273.84	567.92	9.7904	60.915	576.216	30.624
174	17.300	909.00	56000.0	582.494	1.8249	0.6909	1.03	83.97	0.2500	0.0000	85.00	5331.61	574.02	9.7902	61.215	579.268	30.701
175	17.400	907.00	56000.0	585.568	1.8359	0.6883	1.03	83.97	0.2500	0.0000	85.00	5389.69	580.16	9.7900	61.516	582.327	30.780
176	17.500	905.00	56000.0	588.650	1.8469	0.6857	1.03	83.97	0.2500	0.0000	85.00	5448.08	586.33	9.7899	61.818	585.395	30.862
177	17.600	903.00	56000.0	591.740	1.8580	0.6831	1.03	83.97	0.2500	0.0000	85.00	5506.77	592.52	9.7897	62.120	588.470	30.946
178	17.700	901.00	56000.0	594.839	1.8692	0.6805	1.02	83.98	0.2500	0.0000	85.00	5565.77	598.75	9.7895	62.423	591.555	31.033
179	17.800	899.00	56000.0	597.947	1.8804	0.6779	1.02	83.98	0.2500	0.0000	85.00	5625.08	605.01	9.7893	62.727	594.648	31.123
180	17.900	897.00	56000.0	601.064	1.8916	0.6753	1.02	83.98	0.2500	0.0000	85.00	5684.70	611.30	9.7891	63.032	597.750	31.215
181	18.000	895.00	56000.0	604.190	1.9029	0.6726	1.02	83.98	0.2500	0.0000	85.00	5744.63	617.61	9.7889	63.337	600.861	31.309
182	18.100	893.00	56000.0	607.326	1.9143	0.6700	1.02	83.98	0.2500	0.0000	85.00	5804.88	623.96	9.7888	63.643	603.982	31.406
183	18.200	891.00	56000.0	610.471	1.9257	0.6673	1.01	83.99	0.2500	0.0000	85.00	5865.43	630.34	9.7886	63.950	607.112	31.506
184	18.300	889.00	56000.0	613.627	1.9372	0.6646	1.01	83.99	0.2500	0.0000	85.00	5926.30	636.75	9.7884	64.258	610.253	31.609
185	18.400	887.00	56000.0	616.793	1.9488	0.6620	1.01	83.99	0.2500	0.0000	85.00	5987.48	643.19	9.7882	64.566	613.404	31.714
186	18.500	885.00	56000.0	619.970	1.9604	0.6592	1.01	83.99	0.2500	0.0000	85.00	6048.98	649.67	9.7880	64.876	616.566	31.822
187	18.600	883.00	56000.0	623.158	1.9720	0.6565	1.00	84.00	0.2500	0.0000	85.00	6110.79	656.17	9.7878	65.186	619.739	31.932
188	18.700	881.00	56000.0	626.356	1.9838	0.6538	1.00	84.00	0.2500	0.0000	85.00	6172.93	662.70	9.7876	65.497	622.922	32.045
189	18.800	879.00	56000.0	629.567	1.9956	0.6510	1.00	84.00	0.2500	0.0000	85.00	6235.38	669.27	9.7874	65.810	626.118	32.161
190	18.900	877.00	56000.0	632.788	2.0074	0.6488	1.00	84.00	0.2500	0.0000	85.00	6298.15	675.87	9.7872	66.123	629.324	32.263
191	19.000	875.00	56000.0	636.019	2.0194	0.6468	1.00	84.00	0.2500	0.0000	85.00	6361.24	682.49	9.7871	66.437	632.540	32.358
192	19.100	873.00	56000.0	639.260	2.0313	0.6448	0.99	84.01	0.2500	0.0000	85.00	6424.66	689.15	9.7869	66.752	635.765	32.455
193	19.200	871.00	56000.0	642.510	2.0434	0.6428	0.99	84.01	0.2500	0.0000	85.00	6488.40	695.84	9.7867	67.067	639.000	32.555
194	19.300	869.00	56000.0	645.771	2.0555	0.6408	0.99	84.01	0.2500	0.0000	85.00	6552.46	702.57	9.7865	67.384	642.246	32.657
195	19.400	867.00	56000.0	649.042	2.0677	0.6387	0.99	84.01	0.2500	0.0000	85.00	6616.85	709.32	9.7863	67.701	645.501	32.762
196	19.500	865.00	56000.0	652.323	2.0799	0.6367	0.99	84.01	0.2500	0.0000	85.00	6681.56	716.11	9.7861	68.019	648.767	32.870
197	19.600	863.00	56000.0	655.616	2.0922	0.6346	0.98	84.02	0.2500	0.0000	85.00	6746.60	722.93	9.7859	68.339	652.044	32.980
198	19.700	861.00	56000.0	658.919	2.1046	0.6326	0.98	84.02	0.2500	0.0000	85.00	6811.97	729.77	9.7857	68.659	655.333	33.092
199	19.800	859.00	56000.0	662.234	2.1170	0.6305	0.98	84.02	0.2500	0.0000	85.00	6877.67	736.66	9.7855	68.980	658.632	33.207
200	19.900	857.00	56000.0	665.561	2.1295	0.6284	0.98	84.02	0.2500	0.0000	85.00	6943.69	743.57	9.7853	69.302	661.943	33.325
201	20.000	855.00	56000.0	668.899	2.1421	0.6263	0.97	84.03	0.2500	0.0000	85.00	7010.05	750.52	9.7851	69.625	665.266	33.446
202	20.100	853.00	56000.0	672.250	2.1547	0.6242	0.97	84.03	0.2500	0.0000	85.00	7076.75	757.50	9.7849	69.949	668.601	33.569
203	20.200	851.00	56000.0	675.613	2.1675	0.6221	0.97	84.03	0.2500	0.0000	85.00	7143.77	764.51	9.7846	70.274	671.949	33.695
204	20.300	849.00	56000.0	678.989	2.1803	0.6200	0.97	84.03	0.2500	0.0000	85.00	7211.14	771.55	9.7844	70.600	675.309	33.823
205	20.400	847.00	56000.0	682.378	2.1932	0.6178	0.97	84.03	0.2500	0.0000	85.00	7278.84	778.63	9.7842	70.928	678.682	33.955
206	20.500	845.00	56000.0	685.780	2.2061	0.6156	0.96	84.04	0.2500	0.0000	85.00	7346.87	785.74	9.7840	71.256	682.068	34.089
207	20.600	843.00	56000.0	689.196	2.2191	0.6135	0.96	84.04	0.2500	0.0000	85.00	7415.25	792.88	9.7838	71.586	685.468	34.226
208	20.700	841.00	56000.0	692.626	2.2323	0.6113	0.96	84.04	0.2500	0.0000	85.00	7483.97	800.05	9.7836	71.917	688.882	34.365
209	20.800	839.00	56000.0	696.069	2.2455	0.6091	0.96	84.04	0.2500	0.0000	85.00	7553.03	807.26	9.7834	72.249	692.309	34.508
210	20.900	837.00	56000.0	699.527	2.2587	0.6069	0.96	84.04	0.2500	0.0000	85.00	7622.43	814.50	9.7832	72.583	695.751	34.653
211	21.000	835.00	56000.0	703.000	2.2721	0.6046	0.95	84.05	0.2500	0.0000	85.00	7692.18	821.78	9.7830	72.917	699.208	34.801
212	21.100	833.00	56000.0	706.488	2.2856	0.6024	0.95	84.05	0.2500	0.0000	85.00	7762.27	829.09	9.7827	73.254	702.680	34.952
213	21.200	831.00	56000.0	709.990	2.2991	0.6001	0.95	84.05	0.2500	0.0000	85.00	7832.71	836.43	9.7825	73.591	706.166	35.106
214	21.300	829.00	56000.0	713.509	2.3127	0.5979	0.95	84.05	0.2500	0.0000	85.00	7903.50	843.80	9.7823	73.930	709.668	35.263
215	21.400	827.00	56000.0	717.043	2.3265	0.5956	0.95	84.05	0.2500	0.0000	85.00	7974.65	851.21	9.7821	74.270	713.186	35.423
216	21.500	825.00	56000.0	720.594	2.3403	0.5933	0.94	84.06	0.2500	0.0000	85.00	8046.14	858.66	9.7819	74.612	716.720	35.585
217	21.600	823.00	56000.0	724.160	2.3542	0.5910	0.94	84.06	0.2500	0.0000	85.00	8117.99	866.14	9.7817	74.955	720.271	35.751
218	21.700	821.00	56000.0	727.744	2.3682	0.5886	0.94	84.06	0.2500	0.0000	85.00	8190.20	873.65	9.7814	75.300	723.838	35.920
219	21.800	819.00	56000.0	731.344	2.3823	0.5863	0.94	84.06	0.2500	0.0000	85.00	8262.76	881.20	9.7812	75.646	727.422	36.092
220	21.900	817.00	56000.0	734.962	2.3965	0.5839	0.93	84.07	0.2500	0.0000	85.00	8335.68	888.78	9.7810	75.994	731.023	36.266
221	22.000	815.00	56000.0	738.598	2.4108	0.5815	0.93	84.07	0.2500	0.0000	85.00	8408.96	896.40	9.7808	76.344	734.642	36.444
222	22.100	813.00	56000.0	742.251	2.4252	0.5791	0.93	84.07	0.2500	0.0000	85.00	8482.61	904.05	9.7805	76.695	738.278	36.625
223	22.200	811.00	56000.0	745.923	2.4397	0.5767	0.93	84.07	0.2500	0.0000	85.00	8556.62	911.73	9.7803	77.048	741.933	36.809
224	22.300	809.00	56000.0	749.613	2.4543	0.5743	0.93	84.07	0.2500	0.0000	85.00	8630.99	919.46	9.7801	77.402	745.606	36.996
225	22.400	807.00	56000.0	753.322	2.4690	0.5718	0.92	84.08	0.2500	0.0000	85.00	8705.74	927.22	9.7798	77.758	749.299	37.187
226	22.500	805.00	56000.0	757.051	2.4839	0.5694	0.92	84.08	0.2500	0.0000	85.00	8780.85	935.01	9.7796	78.116	753.010	37.380
227	22.600	803.00	56000.0	760.799	2.4988	0.5669	0.92	84.08	0.2500	0.0000	85.00	8856.34	942.84	9.7794	78.476	756.740	37.577
228	22.700	801.00	56000.0	764.566	2.5139	0.5644	0.92	84.08	0.2500	0.0000	85.00	8932.20	950.70	9.7791	78.838	760.491	37.777
229	22.800	799.00	56000.0	768.354	2.5290	0.5618	0.92	84.08	0.2500	0.0000	85.00	9008.44	958.61	9.7789	79.201	764.261	37.980
230	22.900	797.00	56000.0	772.163	2.5443	0.5593	0.91	84.09	0.2500	0.0000	85.00	9085.05	966.54	9.7787	79.567	768.052	38.187
231	23.000	795.00	56000.0	775.992	2.5597	0.5567	0.91	84.09	0.2500	0.0000	85.00	9162.05	974.52	9.7784	79.934	771.864	38.397
232	23.100	793.00	56000.0	779.842	2.5753	0.5541	0.91	84.09	0.2500	0.0000	85.00	9239.43	982.53	9.7782	80.303	775.696	38.610
233	23.200	791.00	56000.0	783.714	2.5909	0.5515	0.91	84.09	0.2500	0.0000	85.00	9317.19	990.58	9.7780	80.674	779.551	38.826
234	23.300	789.00	56000.0	787.606	2.6067	0.5496	0.91	84.09	0.2500	0.0000	85.00	9395.34	998.67	9.7777	81.047	783.425	39.018
235	23.400	787.00	56000.0	791.516	2.6226	0.5486	0.90	84.10	0.2500	0.0000	85.00	9473.87	1006.79	9.7775	81.422	787.317	39.175
236	23.500	785.00	56000.0	795.441	2.6385	0.5476	0.90	84.10	0.2500	0.0000	85.00	9552.80	1014.95	9.7772	81.798	791.224	39.334
237	23.600	783.00	56000.0	799.383	2.6546	0.5466	0.90	84.10	0.2500	0.0000	85.00	9632.12	1023.15	9.7770	82.176	795.148	39.496
238	23.700	781.00	56000.0	803.341	2.6708	0.5456	0.90	84.10	0.2500	0.0000	85.00	9711.83	1031.39	9.7768	82.555	799.087	39.661
239	23.800	779.00	56000.0	807.315	2.6872	0.5446	0.90	84.10	0.2500	0.0000	85.00	9791.94	1039.66	9.7765	82.935	803.044	39.829
240	23.900	777.00	56000.0	811.306	2.7036	0.5435	0.89	84.11	0.2500	0.0000	85.00	9872.44	1047.97	9.7763	83.317	807.017	40.000
241	24.000	775.00	56000.0	815.315	2.7201	0.5425	0.89	84.11	0.2500	0.0000	85.00	9953.34	1056.32	9.7760	83.701	811.007	40.173
242	24.100	773.00	56000.0	819.341	2.7368	0.5415	0.89	84.11	0.2500	0.0000	85.00	10034.64	1064.71	9.7758	84.086	815.015	40.350
243	24.200	771.00	56000.0	823.385	2.7536	0.5404	0.89	84.11	0.2500	0.0000	85.00	10116.34	1073.14	9.7755	84.473	819.041	40.529
244	24.300	769.00	56000.0	827.447	2.7705	0.5393	0.89	84.11	0.2500	0.0000	85.00	10198.45	1081.61	9.7753	84.861	823.084	40.712
245	24.400	767.00	56000.0	831.528	2.7875	0.5383	0.88	84.12	0.2500	0.0000	85.00	10280.96	1090.11	9.7750	85.251	827.146	40.897
246	24.500	765.00	56000.0	835.627	2.8046	0.5372	0.88	84.12	0.2500	0.0000	85.00	10363.88	1098.66	9.7748	85.643	831.226	41.086
247	24.600	763.00	56000.0	839.745	2.8219	0.5361	0.88	84.12	0.2500	0.0000	85.00	10447.21	1107.24	9.7745	86.036	835.326	41.277
248	24.700	761.00	56000.0	843.882	2.8393	0.5350	0.88	84.12	0.2500	0.0000	85.00	10530.94	1115.86	9.7742	86.432	839.444	41.472
249	24.800	759.00	56000.0	848.039	2.8568	0.5339	0.88	84.12	0.2500	0.0000	85.00	10615.09	1124.53	9.7740	86.829	843.583	41.670
250	24.900	757.00	56000.0	852.216	2.8745	0.5328	0.87	84.13	0.2500	0.0000	85.00	10699.66	1133.23	9.7737	87.228	847.741	41.871
251	25.000	755.00	56000.0	856.414	2.8923	0.5317	0.87	84.13	0.2500	0.0000	85.00	10784.64	1141.97	9.7735	87.628	851.919	42.074
252	25.100	753.00	56000.0	860.631	2.9102	0.5306	0.87	84.13	0.2500	0.0000	85.00	10870.04	1150.76	9.7732	88.031	856.117	42.281
253	25.200	751.00	56000.0	864.870	2.9283	0.5295	0.87	84.13	0.2500	0.0000	85.00	10955.87	1159.58	9.7729	88.436	860.337	42.492
254	25.300	749.00	56000.0	869.134	2.9455	0.5284	0.87	84.13	0.2500	0.0000	85.00	11042.11	1168.44	9.7727	88.842	864.581	42.784
255	25.400	747.00	56000.0	873.425	2.9601	0.5275	0.87	84.13	0.2500	0.0000	85.00	11128.78	1177.35	9.7724	89.252	868.853	43.047
256	25.500	745.00	56000.0	877.743	2.9747	0.5266	0.86	84.14	0.2500	0.0000	85.00	11215.88	1186.29	9.7721	89.664	873.152	43.313
257	25.600	743.00	56000.0	882.088	2.9894	0.5257	0.86	84.14	0.2500	0.0000	85.00	11303.41	1195.28	9.7719	90.079	877.477	43.580
258	25.700	741.00	56000.0	886.460	3.0042	0.5247	0.86	84.14	0.2500	0.0000	85.00	11391.38	1204.31	9.7716	90.496	881.828	43.850
259	25.800	739.00	56000.0	890.858	3.0191	0.5238	0.86	84.14	0.2500	0.0000	85.00	11479.78	1213.38	9.7713	90.916	886.207	44.122
260	25.900	737.00	56000.0	895.284	3.0341	0.5229	0.86	84.14	0.2500	0.0000	85.00	11568.62	1222.49	9.7711	91.338	890.613	44.396
261	26.000	735.00	56000.0	899.738	3.0492	0.5219	0.85	84.15	0.2500	0.0000	85.00	11657.90	1231.65	9.7708	91.763	895.046	44.673
262	26.100	733.00	56000.0	904.219	3.0644	0.5210	0.85	84.15	0.2500	0.0000	85.00	11747.63	1240.85	9.7705	92.191	899.507	44.952
263	26.200	731.00	56000.0	908.728	3.0797	0.5200	0.85	84.15	0.2500	0.0000	85.00	11837.80	1250.09	9.7702	92.621	903.996	45.233
264	26.300	729.00	56000.0	913.266	3.0951	0.5191	0.85	84.15	0.2500	0.0000	85.00	11928.43	1259.37	9.7699	93.054	908.512	45.517
265	26.400	727.00	56000.0	917.832	3.1106	0.5181	0.85	84.15	0.2500	0.0000	85.00	12019.50	1268.70	9.7697	93.490	913.058	45.803
266	26.500	725.00	56000.0	922.426	3.1261	0.5171	0.84	84.16	0.2500	0.0000	85.00	12111.04	1278.07	9.7694	93.928	917.631	46.091
267	26.600	723.00	56000.0	927.050	3.1418	0.5161	0.84	84.16	0.2500	0.0000	85.00	12203.03	1287.48	9.7691	94.370	922.234	46.382
268	26.700	721.00	56000.0	931.703	3.1576	0.5152	0.84	84.16	0.2500	0.0000	85.00	12295.48	1296.94	9.7688	94.814	926.866	46.675
269	26.800	719.00	56000.0	936.385	3.1734	0.5142	0.84	84.16	0.2500	0.0000	85.00	12388.40	1306.44	9.7685	95.261	931.527	46.970
270	26.900	717.00	56000.0	941.097	3.1894	0.5132	0.84	84.16	0.2500	0.0000	85.00	12481.79	1315.99	9.7683	95.710	936.217	47.267
271	27.000	715.00	56000.0	945.838	3.2055	0.5122	0.84	84.16	0.2500	0.0000	85.00	12575.65	1325.59	9.7680	96.163	940.937	47.567
272	27.100	713.00	56000.0	950.610	3.2216	0.5111	0.83	84.17	0.2500	0.0000	85.00	12669.98	1335.23	9.7677	96.618	945.687	47.870
273	27.200	711.00	56000.0	955.412	3.2379	0.5101	0.83	84.17	0.2500	0.0000	85.00	12764.78	1344.91	9.7674	97.076	950.468	48.175
274	27.300	709.00	56000.0	960.245	3.2543	0.5091	0.83	84.17	0.2500	0.0000	85.00	12860.07	1354.64	9.7671	97.538	955.279	48.482
275	27.400	707.00	56000.0	965.109	3.2708	0.5081	0.83	84.17	0.2500	0.0000	85.00	12955.84	1364.42	9.7668	98.002	960.120	48.791
276	27.500	705.00	56000.0	970.004	3.2874	0.5070	0.83	84.17	0.2500	0.0000	85.00	13052.10	1374.24	9.7665	98.469	964.993	49.103
277	27.600	703.00	56000.0	974.930	3.3041	0.5060	0.82	84.18	0.2500	0.0000	85.00	13148.84	1384.11	9.7662	98.939	969.896	49.417
278	27.700	701.00	56000.0	979.887	3.3209	0.5049	0.82	84.18	0.2500	0.0000	85.00	13246.07	1394.03	9.7659	99.412	974.831	49.734
279	27.800	699.00	56000.0	984.876	3.3378	0.5039	0.82	84.18	0.2500	0.0000	85.00	13343.81	1403.99	9.7656	99.888	979.798	50.053
280	27.900	697.00	56000.0	989.898	3.3548	0.5028	0.82	84.18	0.2500	0.0000	85.00	13442.03	1414.01	9.7653	100.367	984.796	50.375
281	28.000	695.00	56000.0	994.951	3.3719	0.5018	0.82	84.18	0.2500	0.0000	85.00	13540.76	1424.07	9.7650	100.849	989.827	50.698
282	28.100	693.00	56000.0	1000.038	3.3892	0.5007	0.82	84.18	0.2500	0.0000	85.00	13640.00	1434.18	9.7647	101.335	994.890	51.025
283	28.200	691.00	56000.0	1005.156	3.4065	0.4999	0.81	84.19	0.2500	0.0000	85.00	13739.74	1444.33	9.7644	101.823	999.985	51.342
284	28.300	689.00	56000.0	1010.305	3.4240	0.4995	0.81	84.19	0.2500	0.0000	85.00	13840.00	1454.54	9.7641	102.314	1005.111	51.644
285	28.400	687.00	56000.0	1015.485	3.4415	0.4992	0.81	84.19	0.2500	0.0000	85.00	13940.76	1464.80	9.7638	102.808	1010.267	51.947
286	28.500	685.00	56000.0	1020.695	3.4592	0.4989	0.81	84.19	0.2500	0.0000	85.00	14042.05	1475.10	9.7635	103.305	1015.454	52.254
287	28.600	683.00	56000.0	1025.936	3.4769	0.4985	0.81	84.19	0.2500	0.0000	85.00	14143.86	1485.46	9.7632	103.805	1020.671	52.562
288	28.700	681.00	56000.0	1031.207	3.4948	0.4982	0.81	84.19	0.2500	0.0000	85.00	14246.18	1495.86	9.7628	104.308	1025.918	52.874
289	28.800	679.00	56000.0	1036.510	3.5128	0.4978	0.80	84.20	0.2500	0.0000	85.00	14349.04	1506.32	9.7625	104.814	1031.197	53.188
290	28.900	677.00	56000.0	1041.845	3.5308	0.4975	0.80	84.20	0.2500	0.0000	85.00	14452.42	1516.83	9.7622	105.322	1036.508	53.504
291	29.000	675.00	56000.0	1047.211	3.5490	0.4971	0.80	84.20	0.2500	0.0000	85.00	14556.34	1527.38	9.7619	105.834	1041.850	53.823
292	29.100	673.00	56000.0	1052.610	3.5673	0.4968	0.80	84.20	0.2500	0.0000	85.00	14660.79	1537.99	9.7616	106.349	1047.223	54.144
293	29.200	671.00	56000.0	1058.040	3.5857	0.4964	0.80	84.20	0.2500	0.0000	85.00	14765.79	1548.65	9.7612	106.867	1052.629	54.469
294	29.300	669.00	56000.0	1063.503	3.6042	0.4961	0.80	84.20	0.2500	0.0000	85.00	14871.32	1559.37	9.7609	107.387	1058.068	54.795
295	29.400	667.00	56000.0	1068.999	3.6229	0.4957	0.79	84.21	0.2500	0.0000	85.00	14977.40	1570.13	9.7606	107.911	1063.539	55.124
296	29.500	665.00	56000.0	1074.528	3.6416	0.4954	0.79	84.21	0.2500	0.0000	85.00	15084.03	1580.95	9.7603	108.439	1069.043	55.456
297	29.600	663.00	56000.0	1080.091	3.6605	0.4950	0.79	84.21	0.2500	0.0000	85.00	15191.21	1591.82	9.7599	108.969	1074.580	55.791
298	29.700	661.00	56000.0	1085.687	3.6794	0.4946	0.79	84.21	0.2500	0.0000	85.00	15298.94	1602.74	9.7596	109.502	1080.150	56.128
299	29.800	659.00	56000.0	1091.316	3.6985	0.4943	0.79	84.21	0.2500	0.0000	85.00	15407.24	1613.72	9.7593	110.039	1085.755	56.467
300	29.900	657.00	56000.0	1096.980	3.7177	0.4939	0.79	84.21	0.2500	0.0000	85.00	15516.09	1624.75	9.7590	110.578	1091.393	56.809
301	30.000	655.00	56000.0	1102.678	3.7370	0.4935	0.78	84.22	0.2500	0.0000	85.00	15625.52	1635.84	9.7586	111.121	1097.065	57.154
