N	t(c)	m(kg)	P(H)	V(m/s)	M	Cxa	alpha(grad)	theta_c(grad)	Cya_alpha	omega_z(1/s)	theta(grad)	y(m)	x(m)	g(m/s2)
1	0.000	1255.00	56000.0	10.000	0.0294	0.3000	0.00	85.00	0.2500	0.0000	85.00	0.00	0.00	9.8066
2	0.100	1253.00	56000.0	13.489	0.0396	0.3000	0.00	84.56	0.2500	0.0000	85.00	1.17	0.11	9.8066
3	0.200	1251.00	56000.0	16.985	0.0499	0.3000	0.00	84.20	0.2500	0.0000	85.00	2.69	0.26	9.8066
4	0.300	1249.00	56000.0	20.488	0.0602	0.3000	0.00	83.89	0.2500	0.0000	85.00	4.55	0.45	9.8066
5	0.400	1247.00	56000.0	23.999	0.0705	0.3000	0.00	83.61	0.2500	0.0000	85.00	6.76	0.69	9.8066
6	0.500	1245.00	56000.0	27.517	0.0809	0.3000	0.00	83.36	0.2500	0.0000	85.00	9.32	0.99	9.8066
7	0.600	1243.00	56000.0	31.041	0.0912	0.3000	0.00	83.14	0.2500	0.0000	85.00	12.23	1.33	9.8066
8	0.700	1241.00	56000.0	34.573	0.1016	0.3000	0.00	82.93	0.2500	0.0000	85.00	15.48	1.73	9.8066
9	0.800	1239.00	56000.0	38.112	0.1120	0.3000	0.00	82.74	0.2500	0.0000	85.00	19.09	2.18	9.8066
10	0.900	1237.00	56000.0	41.657	0.1224	0.3000	0.00	82.56	0.2500	0.0000	85.00	23.04	2.69	9.8066
11	1.000	1235.00	56000.0	45.209	0.1329	0.3000	0.00	82.39	0.2500	0.0000	85.00	27.35	3.26	9.8066
12	1.100	1233.00	56000.0	48.768	0.1434	0.3000	0.00	82.23	0.2500	0.0000	85.00	32.01	3.89	9.8066
13	1.200	1231.00	56000.0	52.333	0.1539	0.3000	0.00	82.08	0.2500	0.0000	85.00	37.01	4.58	9.8065
14	1.300	1229.00	56000.0	55.905	0.1644	0.3000	0.00	81.93	0.2500	0.0000	85.00	42.37	5.33	9.8065
15	1.400	1227.00	56000.0	59.483	0.1749	0.3000	0.00	81.79	0.2500	0.0000	85.00	48.08	6.15	9.8065
16	1.500	1225.00	56000.0	63.067	0.1854	0.3000	0.00	81.66	0.2500	0.0000	85.00	54.15	7.03	9.8065
17	1.600	1223.00	56000.0	66.658	0.1960	0.3000	0.00	81.53	0.2500	0.0000	85.00	60.57	7.98	9.8065
18	1.700	1221.00	56000.0	70.254	0.2066	0.3000	0.00	81.41	0.2500	0.0000	85.00	67.34	9.00	9.8064
19	1.800	1219.00	56000.0	73.857	0.2172	0.3000	0.00	81.30	0.2500	0.0000	85.00	74.46	10.08	9.8064
20	1.900	1217.00	56000.0	77.466	0.2279	0.3000	0.00	81.18	0.2500	0.0000	85.00	81.94	11.23	9.8064
21	2.000	1215.00	56000.0	81.080	0.2385	0.3000	0.00	81.07	0.2500	0.0000	85.00	89.77	12.45	9.8064
22	2.100	1213.00	56000.0	84.701	0.2492	0.3000	0.00	80.97	0.2500	0.0000	85.00	97.96	13.75	9.8063
23	2.200	1211.00	56000.0	88.327	0.2599	0.3000	0.00	80.86	0.2500	0.0000	85.00	106.50	15.12	9.8063
24	2.300	1209.00	56000.0	91.959	0.2706	0.3000	0.00	80.76	0.2500	0.0000	85.00	115.40	16.55	9.8063
25	2.400	1207.00	56000.0	95.596	0.2813	0.3000	0.00	80.67	0.2500	0.0000	85.00	124.65	18.07	9.8063
26	2.500	1205.00	56000.0	99.239	0.2921	0.3000	0.00	80.57	0.2500	0.0000	85.00	134.26	19.65	9.8062
27	2.600	1203.00	56000.0	102.888	0.3028	0.3000	0.00	80.48	0.2500	0.0000	85.00	144.23	21.32	9.8062
28	2.700	1201.00	56000.0	106.541	0.3136	0.3000	0.00	80.39	0.2500	0.0000	85.00	154.56	23.06	9.8062
29	2.800	1199.00	56000.0	110.200	0.3244	0.3000	0.00	80.31	0.2500	0.0000	85.00	165.24	24.87	9.8061
30	2.900	1197.00	56000.0	113.865	0.3353	0.3000	0.00	80.22	0.2500	0.0000	85.00	176.28	26.77	9.8061
31	3.000	1195.00	56000.0	117.534	0.3461	0.3000	0.00	80.14	0.2500	0.0000	85.00	187.68	28.74	9.8061
32	3.100	1193.00	56000.0	121.208	0.3570	0.3000	0.00	80.06	0.2500	0.0000	85.00	199.44	30.79	9.8060
33	3.200	1191.00	56000.0	124.888	0.3679	0.3000	0.00	79.98	0.2500	0.0000	85.00	211.56	32.93	9.8060
34	3.300	1189.00	56000.0	128.572	0.3788	0.3000	0.00	79.90	0.2500	0.0000	85.00	224.04	35.14	9.8060
35	3.400	1187.00	56000.0	132.261	0.3897	0.3000	0.00	79.83	0.2500	0.0000	85.00	236.88	37.44	9.8059
36	3.500	1185.00	56000.0	135.955	0.4007	0.3000	0.00	79.75	0.2500	0.0000	85.00	250.08	39.81	9.8059
37	3.600	1183.00	56000.0	139.653	0.4116	0.3000	0.00	79.68	0.2500	0.0000	85.00	263.64	42.27	9.8058
38	3.700	1181.00	56000.0	143.356	0.4226	0.3000	0.00	79.61	0.2500	0.0000	85.00	277.56	44.82	9.8058
39	3.800	1179.00	56000.0	147.064	0.4336	0.3000	0.00	79.54	0.2500	0.0000	85.00	291.84	47.45	9.8057
40	3.900	1177.00	56000.0	150.776	0.4446	0.3000	0.00	79.47	0.2500	0.0000	85.00	306.48	50.16	9.8057
41	4.000	1175.00	56000.0	154.492	0.4557	0.3000	0.00	79.40	0.2500	0.0000	85.00	321.48	52.96	9.8057
42	4.100	1173.00	56000.0	158.213	0.4667	0.3000	0.00	79.33	0.2500	0.0000	85.00	336.85	55.84	9.8056
43	4.200	1171.00	56000.0	161.938	0.4778	0.3000	0.00	79.27	0.2500	0.0000	85.00	352.58	58.82	9.8056
44	4.300	1169.00	56000.0	165.667	0.4889	0.3000	0.00	79.21	0.2500	0.0000	85.00	368.67	61.87	9.8055
45	4.400	1167.00	56000.0	169.400	0.5000	0.3000	0.00	79.14	0.2500	0.0000	85.00	385.13	65.02	9.8055
46	4.500	1165.00	56000.0	173.137	0.5111	0.3000	0.00	79.08	0.2500	0.0000	85.00	401.95	68.26	9.8054
47	4.600	1163.00	56000.0	176.878	0.5223	0.3000	0.00	79.02	0.2500	0.0000	85.00	419.13	71.58	9.8054
48	4.700	1161.00	56000.0	180.623	0.5334	0.3000	0.00	78.96	0.2500	0.0000	85.00	436.67	75.00	9.8053
49	4.800	1159.00	56000.0	184.371	0.5446	0.3000	0.00	78.90	0.2500	0.0000	85.00	454.58	78.50	9.8052
50	4.900	1157.00	56000.0	188.123	0.5558	0.3058	0.00	78.84	0.2500	0.0000	85.00	472.86	82.09	9.8052
51	5.000	1155.00	56000.0	191.874	0.5670	0.3170	0.00	78.78	0.2500	0.0000	85.00	491.50	85.78	9.8051
52	5.100	1153.00	56000.0	195.624	0.5782	0.3282	0.00	78.73	0.2500	0.0000	85.00	510.50	89.56	9.8051
53	5.200	1151.00	56000.0	199.371	0.5894	0.3394	0.00	78.67	0.2500	0.0000	85.00	529.87	93.43	9.8050
54	5.300	1149.00	56000.0	203.116	0.6006	0.3506	0.00	78.62	0.2500	0.0000	85.00	549.60	97.39	9.8050
55	5.400	1147.00	56000.0	206.858	0.6118	0.3618	0.00	78.56	0.2500	0.0000	85.00	569.69	101.45	9.8049
56	5.500	1145.00	56000.0	210.597	0.6230	0.3730	0.00	78.51	0.2500	0.0000	85.00	590.15	105.59	9.8048
57	5.600	1143.00	56000.0	214.332	0.6342	0.3842	0.00	78.46	0.2500	0.0000	85.00	610.97	109.84	9.8048
58	5.700	1141.00	56000.0	218.063	0.6454	0.3954	0.00	78.40	0.2500	0.0000	85.00	632.15	114.17	9.8047
59	5.800	1139.00	56000.0	221.788	0.6566	0.4066	0.00	78.35	0.2500	0.0000	85.00	653.69	118.60	9.8046
60	5.900	1137.00	56000.0	225.509	0.6678	0.4178	0.00	78.30	0.2500	0.0000	85.00	675.59	123.13	9.8046
61	6.000	1135.00	56000.0	229.223	0.6790	0.4290	0.00	78.25	0.2500	0.0000	85.00	697.85	127.75	9.8045
62	6.100	1133.00	56000.0	232.931	0.6901	0.4401	0.00	78.20	0.2500	0.0000	85.00	720.47	132.46	9.8044
63	6.200	1131.00	56000.0	236.632	0.7013	0.4513	0.00	78.15	0.2500	0.0000	85.00	743.46	137.27	9.8044
64	6.300	1129.00	56000.0	240.326	0.7124	0.4624	0.00	78.11	0.2500	0.0000	85.00	766.79	142.18	9.8043
65	6.400	1127.00	56000.0	244.012	0.7235	0.4735	0.00	78.06	0.2500	0.0000	85.00	790.49	147.18	9.8042
66	6.500	1125.00	56000.0	247.690	0.7346	0.4846	0.00	78.01	0.2500	0.0000	85.00	814.54	152.28	9.8041
67	6.600	1123.00	56000.0	251.358	0.7457	0.4957	0.00	77.96	0.2500	0.0000	85.00	838.94	157.47	9.8041
68	6.700	1121.00	56000.0	255.018	0.7568	0.5068	0.00	77.92	0.2500	0.0000	85.00	863.71	162.76	9.8040
69	6.800	1119.00	56000.0	258.667	0.7679	0.5179	0.00	77.87	0.2500	0.0000	85.00	888.82	168.15	9.8039
70	6.900	1117.00	56000.0	262.306	0.7789	0.5289	0.00	77.83	0.2500	0.0000	85.00	914.28	173.63	9.8038
71	7.000	1115.00	56000.0	265.933	0.7899	0.5399	0.00	77.78	0.2500	0.0000	85.00	940.10	179.21	9.8038
72	7.100	1113.00	56000.0	269.549	0.8009	0.5513	0.00	77.74	0.2496	0.0000	85.00	966.26	184.89	9.8037
73	7.200	1111.00	56000.0	273.151	0.8118	0.5677	0.00	77.69	0.2441	0.0000	85.00	992.78	190.66	9.8036
74	7.300	1109.00	56000.0	276.735	0.8227	0.5841	0.00	77.65	0.2386	0.0000	85.00	1019.64	196.53	9.8035
75	7.400	1107.00	56000.0	280.300	0.8336	0.6004	0.00	77.61	0.2332	0.0000	85.00	1046.84	202.50	9.8034
76	7.500	1105.00	56000.0	283.848	0.8444	0.6166	0.00	77.56	0.2278	0.0000	85.00	1074.39	208.57	9.8033
77	7.600	1103.00	56000.0	287.375	0.8552	0.6328	0.00	77.52	0.2224	0.0000	85.00	1102.28	214.73	9.8032
78	7.700	1101.00	56000.0	290.883	0.8659	0.6489	0.00	77.48	0.2170	0.0000	85.00	1130.51	220.99	9.8032
79	7.800	1099.00	56000.0	294.369	0.8766	0.6649	0.00	77.44	0.2117	0.0000	85.00	1159.07	227.34	9.8031
80	7.900	1097.00	56000.0	297.835	0.8872	0.6808	0.00	77.39	0.2064	0.0000	85.00	1187.97	233.79	9.8030
81	8.000	1095.00	56000.0	301.278	0.8978	0.6966	0.00	77.35	0.2011	0.0000	85.00	1217.20	240.34	9.8029
82	8.100	1093.00	56000.0	304.699	0.9083	0.7116	0.00	77.31	0.2083	0.0000	85.00	1246.76	246.98	9.8028
83	8.200	1091.00	56000.0	308.097	0.9187	0.7262	0.00	77.27	0.2187	0.0000	85.00	1276.65	253.72	9.8027
84	8.300	1089.00	56000.0	311.473	0.9291	0.7407	0.00	77.23	0.2291	0.0000	85.00	1306.87	260.56	9.8026
85	8.400	1087.00	56000.0	314.825	0.9394	0.7552	0.00	77.19	0.2394	0.0000	85.00	1337.41	267.49	9.8025
86	8.500	1085.00	56000.0	318.154	0.9497	0.7696	0.00	77.15	0.2497	0.0000	85.00	1368.27	274.52	9.8024
87	8.600	1083.00	56000.0	321.458	0.9599	0.7839	0.00	77.11	0.2599	0.0000	85.00	1399.44	281.64	9.8023
88	8.700	1081.00	56000.0	324.738	0.9701	0.7981	0.00	77.08	0.2701	0.0000	85.00	1430.94	288.85	9.8022
89	8.800	1079.00	56000.0	327.992	0.9802	0.8122	0.00	77.04	0.2802	0.0000	85.00	1462.75	296.16	9.8021
90	8.900	1077.00	56000.0	331.221	0.9902	0.8262	0.00	77.00	0.2902	0.0000	85.00	1494.86	303.57	9.8020
91	9.000	1075.00	56000.0	334.423	1.0001	0.8400	0.00	76.96	0.3000	0.0000	85.00	1527.29	311.07	9.8019
92	9.100	1073.00	56000.0	337.606	1.0100	0.8433	0.00	76.92	0.3017	0.0000	85.00	1560.02	318.66	9.8018
93	9.200	1071.00	56000.0	340.775	1.0199	0.8466	0.00	76.89	0.3033	0.0000	85.00	1593.06	326.34	9.8017
94	9.300	1069.00	56000.0	343.931	1.0297	0.8499	0.00	76.85	0.3050	0.0000	85.00	1626.40	334.12	9.8016
95	9.400	1067.00	56000.0	347.073	1.0396	0.8532	0.00	76.81	0.3066	0.0000	85.00	1660.04	341.99	9.8015
96	9.500	1065.00	56000.0	350.202	1.0494	0.8565	0.00	76.77	0.3082	0.0000	85.00	1693.98	349.96	9.8014
97	9.600	1063.00	56000.0	353.317	1.0591	0.8597	0.00	76.74	0.3099	0.0000	85.00	1728.22	358.02	9.8013
98	9.700	1061.00	56000.0	356.418	1.0688	0.8622	0.00	76.70	0.2967	0.0000	85.00	1762.76	366.17	9.8012
99	9.800	1059.00	56000.0	359.507	1.0785	0.8646	0.00	76.67	0.2822	0.0000	85.00	1797.60	374.41	9.8011
100	9.900	1057.00	56000.0	362.583	1.0882	0.8671	0.00	76.63	0.2677	0.0000	85.00	1832.72	382.75	9.8010
101	10.000	1055.00	56000.0	365.646	1.0979	0.8695	0.00	76.59	0.2532	0.0000	85.00	1868.15	391.18	9.8009
102	10.100	1053.00	56000.0	368.699	1.1075	0.8670	0.00	76.56	0.2500	0.0000	85.00	1903.86	399.71	9.8008
103	10.200	1051.00	56000.0	371.749	1.1171	0.8631	0.00	76.52	0.2500	0.0000	85.00	1939.87	408.32	9.8007
104	10.300	1049.00	56000.0	374.795	1.1268	0.8593	0.00	76.49	0.2500	0.0000	85.00	1976.16	417.04	9.8006
105	10.400	1047.00	56000.0	377.838	1.1364	0.8554	0.00	76.45	0.2500	0.0000	85.00	2012.75	425.84	9.8004
106	10.500	1045.00	56000.0	380.878	1.1461	0.8516	0.00	76.42	0.2500	0.0000	85.00	2049.63	434.74	9.8003
107	10.600	1043.00	56000.0	383.915	1.1557	0.8477	0.00	76.38	0.2500	0.0000	85.00	2086.80	443.73	9.8002
108	10.700	1041.00	56000.0	386.950	1.1654	0.8439	0.00	76.35	0.2500	0.0000	85.00	2124.25	452.81	9.8001
109	10.800	1039.00	56000.0	389.982	1.1750	0.8400	0.00	76.32	0.2500	0.0000	85.00	2162.00	461.99	9.8000
110	10.900	1037.00	56000.0	393.013	1.1847	0.8361	0.00	76.28	0.2500	0.0000	85.00	2200.04	471.26	9.7999
111	11.000	1035.00	56000.0	396.041	1.1944	0.8323	0.00	76.25	0.2500	0.0000	85.00	2238.36	480.63	9.7997
112	11.100	1033.00	56000.0	399.067	1.2040	0.8288	0.00	76.21	0.2500	0.0000	85.00	2276.97	490.09	9.7996
113	11.200	1031.00	56000.0	402.090	1.2137	0.8259	0.00	76.18	0.2500	0.0000	85.00	2315.87	499.65	9.7995
114	11.300	1029.00	56000.0	405.110	1.2234	0.8230	0.00	76.15	0.2500	0.0000	85.00	2355.06	509.30	9.7994
115	11.400	1027.00	56000.0	408.127	1.2331	0.8201	0.00	76.11	0.2500	0.0000	85.00	2394.54	519.05	9.7993
116	11.500	1025.00	56000.0	411.142	1.2428	0.8172	0.00	76.08	0.2500	0.0000	85.00	2434.30	528.89	9.7991
117	11.600	1023.00	56000.0	414.153	1.2525	0.8143	0.00	76.05	0.2500	0.0000	85.00	2474.35	538.83	9.7990
118	11.700	1021.00	56000.0	417.162	1.2622	0.8113	0.00	76.02	0.2500	0.0000	85.00	2514.69	548.86	9.7989
119	11.800	1019.00	56000.0	420.169	1.2719	0.8084	0.00	75.98	0.2500	0.0000	85.00	2555.31	558.99	9.7988
120	11.900	1017.00	56000.0	423.173	1.2816	0.8055	0.00	75.95	0.2500	0.0000	85.00	2596.22	569.22	9.7986
121	12.000	1015.00	56000.0	426.175	1.2914	0.8026	0.00	75.92	0.2500	0.0000	85.00	2637.42	579.54	9.7985
122	12.100	1013.00	56000.0	429.176	1.3011	0.7999	0.00	75.89	0.2500	0.0000	85.00	2678.90	589.95	9.7984
123	12.200	1011.00	56000.0	432.173	1.3108	0.7989	0.00	75.86	0.2500	0.0000	85.00	2720.66	600.47	9.7983
124	12.300	1009.00	56000.0	435.164	1.3206	0.7979	0.00	75.82	0.2500	0.0000	85.00	2762.71	611.08	9.7981
125	12.400	1007.00	56000.0	438.150	1.3303	0.7970	0.00	75.79	0.2500	0.0000	85.00	2805.04	621.78	9.7980
126	12.500	1005.00	56000.0	441.131	1.3401	0.7960	0.00	75.76	0.2500	0.0000	85.00	2847.66	632.58	9.7979
127	12.600	1003.00	56000.0	444.107	1.3498	0.7950	0.00	75.73	0.2500	0.0000	85.00	2890.56	643.48	9.7977
128	12.700	1001.00	56000.0	447.077	1.3595	0.7940	0.00	75.70	0.2500	0.0000	85.00	2933.74	654.48	9.7976
129	12.800	999.00	56000.0	450.044	1.3693	0.7931	0.00	75.67	0.2500	0.0000	85.00	2977.20	665.57	9.7975
130	12.900	997.00	56000.0	453.005	1.3790	0.7921	0.00	75.64	0.2500	0.0000	85.00	3020.95	676.76	9.7973
131	13.000	995.00	56000.0	455.962	1.3888	0.7911	0.00	75.61	0.2500	0.0000	85.00	3064.97	688.05	9.7972
132	13.100	993.00	56000.0	458.915	1.3985	0.7902	0.00	75.58	0.2500	0.0000	85.00	3109.28	699.43	9.7971
133	13.200	991.00	56000.0	461.864	1.4082	0.7881	0.00	75.54	0.2500	0.0000	85.00	3153.86	710.91	9.7969
134	13.300	989.00	56000.0	464.812	1.4180	0.7858	0.00	75.51	0.2500	0.0000	85.00	3198.72	722.49	9.7968
135	13.400	987.00	56000.0	467.759	1.4278	0.7835	0.00	75.48	0.2500	0.0000	85.00	3243.87	734.16	9.7966
136	13.500	985.00	56000.0	470.705	1.4376	0.7812	0.00	75.45	0.2500	0.0000	85.00	3289.29	745.94	9.7965
137	13.600	983.00	56000.0	473.651	1.4474	0.7789	0.00	75.42	0.2500	0.0000	85.00	3334.99	757.81	9.7964
138	13.700	981.00	56000.0	476.596	1.4572	0.7767	0.00	75.39	0.2500	0.0000	85.00	3380.97	769.77	9.7962
139	13.800	979.00	56000.0	479.541	1.4670	0.7744	0.00	75.37	0.2500	0.0000	85.00	3427.23	781.84	9.7961
140	13.900	977.00	56000.0	482.485	1.4769	0.7721	0.00	75.34	0.2500	0.0000	85.00	3473.77	794.01	9.7959
141	14.000	975.00	56000.0	485.430	1.4867	0.7698	0.00	75.31	0.2500	0.0000	85.00	3520.58	806.27	9.7958
142	14.100	973.00	56000.0	488.375	1.4966	0.7675	0.00	75.28	0.2500	0.0000	85.00	3567.68	818.63	9.7957
143	14.200	971.00	56000.0	491.320	1.5065	0.7651	0.00	75.25	0.2500	0.0000	85.00	3615.05	831.09	9.7955
144	14.300	969.00	56000.0	494.266	1.5164	0.7628	0.00	75.22	0.2500	0.0000	85.00	3662.70	843.65	9.7954
145	14.400	967.00	56000.0	497.213	1.5264	0.7605	0.00	75.19	0.2500	0.0000	85.00	3710.63	856.31	9.7952
146	14.500	965.00	56000.0	500.161	1.5363	0.7582	0.00	75.16	0.2500	0.0000	85.00	3758.84	869.07	9.7951
147	14.600	963.00	56000.0	503.110	1.5463	0.7559	0.00	75.13	0.2500	0.0000	85.00	3807.33	881.93	9.7949
148	14.700	961.00	56000.0	506.061	1.5563	0.7535	0.00	75.10	0.2500	0.0000	85.00	3856.10	894.89	9.7948
149	14.800	959.00	56000.0	509.013	1.5663	0.7512	0.00	75.08	0.2500	0.0000	85.00	3905.14	907.95	9.7946
150	14.900	957.00	56000.0	511.967	1.5764	0.7488	0.00	75.05	0.2500	0.0000	85.00	3954.46	921.11	9.7945
151	15.000	955.00	56000.0	514.923	1.5865	0.7465	0.00	75.02	0.2500	0.0000	85.00	4004.07	934.37	9.7943
152	15.100	953.00	56000.0	517.882	1.5966	0.7441	0.00	74.99	0.2500	0.0000	85.00	4053.95	947.73	9.7942
153	15.200	951.00	56000.0	520.843	1.6067	0.7418	0.00	74.96	0.2500	0.0000	85.00	4104.11	961.19	9.7940
154	15.300	949.00	56000.0	523.806	1.6168	0.7394	0.00	74.93	0.2500	0.0000	85.00	4154.55	974.76	9.7938
155	15.400	947.00	56000.0	526.773	1.6270	0.7370	0.00	74.91	0.2500	0.0000	85.00	4205.27	988.42	9.7937
156	15.500	945.00	56000.0	529.742	1.6372	0.7346	0.00	74.88	0.2500	0.0000	85.00	4256.27	1002.19	9.7935
157	15.600	943.00	56000.0	532.715	1.6475	0.7323	0.00	74.85	0.2500	0.0000	85.00	4307.55	1016.06	9.7934
158	15.700	941.00	56000.0	535.691	1.6578	0.7299	0.00	74.82	0.2500	0.0000	85.00	4359.11	1030.03	9.7932
159	15.800	939.00	56000.0	538.671	1.6681	0.7275	0.00	74.80	0.2500	0.0000	85.00	4410.95	1044.11	9.7931
160	15.900	937.00	56000.0	541.655	1.6784	0.7250	0.00	74.77	0.2500	0.0000	85.00	4463.08	1058.28	9.7929
161	16.000	935.00	56000.0	544.644	1.6888	0.7226	0.00	74.74	0.2500	0.0000	85.00	4515.48	1072.56	9.7927
162	16.100	933.00	56000.0	547.636	1.6992	0.7202	0.00	74.72	0.2500	0.0000	85.00	4568.17	1086.95	9.7926
163	16.200	931.00	56000.0	550.633	1.7096	0.7178	0.00	74.69	0.2500	0.0000	85.00	4621.13	1101.44	9.7924
164	16.300	929.00	56000.0	553.636	1.7201	0.7153	0.00	74.66	0.2500	0.0000	85.00	4674.38	1116.03	9.7922
165	16.400	927.00	56000.0	556.643	1.7306	0.7129	0.00	74.64	0.2500	0.0000	85.00	4727.92	1130.73	9.7921
166	16.500	925.00	56000.0	559.655	1.7411	0.7104	0.00	74.61	0.2500	0.0000	85.00	4781.73	1145.53	9.7919
167	16.600	923.00	56000.0	562.673	1.7517	0.7079	0.00	74.58	0.2500	0.0000	85.00	4835.83	1160.43	9.7917
168	16.700	921.00	56000.0	565.697	1.7623	0.7055	0.00	74.56	0.2500	0.0000	85.00	4890.22	1175.45	9.7916
169	16.800	919.00	56000.0	568.727	1.7730	0.7030	0.00	74.53	0.2500	0.0000	85.00	4944.89	1190.56	9.7914
170	16.900	917.00	56000.0	571.763	1.7837	0.7005	0.00	74.50	0.2500	0.0000	85.00	4999.84	1205.79	9.7912
171	17.000	915.00	56000.0	574.806	1.7945	0.6980	0.00	74.48	0.2500	0.0000	85.00	5055.08	1221.12	9.7911
172	17.100	913.00	56000.0	577.855	1.8053	0.6954	0.00	74.45	0.2500	0.0000	85.00	5110.61	1236.56	9.7909
173	17.200	911.00	56000.0	580.911	1.8161	0.6929	0.00	74.42	0.2500	0.0000	85.00	5166.42	1252.10	9.7907
174	17.300	909.00	56000.0	583.974	1.8270	0.6904	0.00	74.40	0.2500	0.0000	85.00	5222.53	1267.75	9.7906
175	17.400	907.00	56000.0	587.045	1.8379	0.6878	0.00	74.37	0.2500	0.0000	85.00	5278.92	1283.51	9.7904
176	17.500	905.00	56000.0	590.124	1.8489	0.6853	0.00	74.35	0.2500	0.0000	85.00	5335.59	1299.38	9.7902
177	17.600	903.00	56000.0	593.210	1.8599	0.6827	0.00	74.32	0.2500	0.0000	85.00	5392.56	1315.36	9.7900
178	17.700	901.00	56000.0	596.305	1.8710	0.6801	0.00	74.30	0.2500	0.0000	85.00	5449.82	1331.44	9.7899
179	17.800	899.00	56000.0	599.408	1.8821	0.6775	0.00	74.27	0.2500	0.0000	85.00	5507.37	1347.64	9.7897
180	17.900	897.00	56000.0	602.520	1.8933	0.6749	0.00	74.25	0.2500	0.0000	85.00	5565.22	1363.94	9.7895
181	18.000	895.00	56000.0	605.640	1.9045	0.6723	0.00	74.22	0.2500	0.0000	85.00	5623.35	1380.36	9.7893
182	18.100	893.00	56000.0	608.770	1.9158	0.6696	0.00	74.19	0.2500	0.0000	85.00	5681.78	1396.88	9.7891
183	18.200	891.00	56000.0	611.910	1.9272	0.6670	0.00	74.17	0.2500	0.0000	85.00	5740.50	1413.52	9.7890
184	18.300	889.00	56000.0	615.058	1.9386	0.6643	0.00	74.14	0.2500	0.0000	85.00	5799.52	1430.26	9.7888
185	18.400	887.00	56000.0	618.217	1.9500	0.6617	0.00	74.12	0.2500	0.0000	85.00	5858.83	1447.12	9.7886
186	18.500	885.00	56000.0	621.387	1.9615	0.6590	0.00	74.10	0.2500	0.0000	85.00	5918.45	1464.10	9.7884
187	18.600	883.00	56000.0	624.566	1.9731	0.6563	0.00	74.07	0.2500	0.0000	85.00	5978.35	1481.18	9.7882
188	18.700	881.00	56000.0	627.757	1.9847	0.6536	0.00	74.05	0.2500	0.0000	85.00	6038.56	1498.38	9.7880
189	18.800	879.00	56000.0	630.958	1.9964	0.6508	0.00	74.02	0.2500	0.0000	85.00	6099.07	1515.69	9.7879
190	18.900	877.00	56000.0	634.170	2.0082	0.6486	0.00	74.00	0.2500	0.0000	85.00	6159.88	1533.12	9.7877
191	19.000	875.00	56000.0	637.391	2.0200	0.6467	0.00	73.97	0.2500	0.0000	85.00	6220.99	1550.66	9.7875
192	19.100	873.00	56000.0	640.622	2.0319	0.6447	0.00	73.95	0.2500	0.0000	85.00	6282.40	1568.31	9.7873
193	19.200	871.00	56000.0	643.861	2.0438	0.6427	0.00	73.92	0.2500	0.0000	85.00	6344.12	1586.08	9.7871
194	19.300	869.00	56000.0	647.110	2.0558	0.6407	0.00	73.90	0.2500	0.0000	85.00	6406.14	1603.97	9.7869
195	19.400	867.00	56000.0	650.369	2.0678	0.6387	0.00	73.88	0.2500	0.0000	85.00	6468.47	1621.98	9.7867
196	19.500	865.00	56000.0	653.639	2.0800	0.6367	0.00	73.85	0.2500	0.0000	85.00	6531.10	1640.10	9.7865
197	19.600	863.00	56000.0	656.918	2.0921	0.6346	0.00	73.83	0.2500	0.0000	85.00	6594.04	1658.33	9.7863
198	19.700	861.00	56000.0	660.208	2.1044	0.6326	0.00	73.80	0.2500	0.0000	85.00	6657.28	1676.69	9.7861
199	19.800	859.00	56000.0	663.509	2.1167	0.6306	0.00	73.78	0.2500	0.0000	85.00	6720.84	1695.16	9.7859
200	19.900	857.00	56000.0	666.821	2.1290	0.6285	0.00	73.76	0.2500	0.0000	85.00	6784.70	1713.75	9.7857
201	20.000	855.00	56000.0	670.145	2.1415	0.6264	0.00	73.73	0.2500	0.0000	85.00	6848.88	1732.46	9.7856
202	20.100	853.00	56000.0	673.480	2.1540	0.6243	0.00	73.71	0.2500	0.0000	85.00	6913.37	1751.29	9.7854
203	20.200	851.00	56000.0	676.827	2.1666	0.6222	0.00	73.69	0.2500	0.0000	85.00	6978.17	1770.24	9.7852
204	20.300	849.00	56000.0	680.186	2.1792	0.6201	0.00	73.66	0.2500	0.0000	85.00	7043.28	1789.31	9.7850
205	20.400	847.00	56000.0	683.558	2.1919	0.6180	0.00	73.64	0.2500	0.0000	85.00	7108.71	1808.51	9.7848
206	20.500	845.00	56000.0	686.942	2.2047	0.6159	0.00	73.62	0.2500	0.0000	85.00	7174.46	1827.82	9.7846
207	20.600	843.00	56000.0	690.340	2.2176	0.6137	0.00	73.60	0.2500	0.0000	85.00	7240.53	1847.26	9.7843
208	20.700	841.00	56000.0	693.750	2.2305	0.6116	0.00	73.57	0.2500	0.0000	85.00	7306.91	1866.81	9.7841
209	20.800	839.00	56000.0	697.174	2.2436	0.6094	0.00	73.55	0.2500	0.0000	85.00	7373.61	1886.50	9.7839
210	20.900	837.00	56000.0	700.612	2.2567	0.6072	0.00	73.53	0.2500	0.0000	85.00	7440.64	1906.30	9.7837
211	21.000	835.00	56000.0	704.064	2.2699	0.6050	0.00	73.50	0.2500	0.0000	85.00	7507.98	1926.23	9.7835
212	21.100	833.00	56000.0	707.531	2.2831	0.6028	0.00	73.48	0.2500	0.0000	85.00	7575.65	1946.28	9.7833
213	21.200	831.00	56000.0	711.012	2.2965	0.6006	0.00	73.46	0.2500	0.0000	85.00	7643.65	1966.46	9.7831
214	21.300	829.00	56000.0	714.507	2.3099	0.5983	0.00	73.44	0.2500	0.0000	85.00	7711.97	1986.77	9.7829
215	21.400	827.00	56000.0	718.019	2.3234	0.5961	0.00	73.41	0.2500	0.0000	85.00	7780.62	2007.20	9.7827
216	21.500	825.00	56000.0	721.545	2.3371	0.5938	0.00	73.39	0.2500	0.0000	85.00	7849.60	2027.76	9.7825
217	21.600	823.00	56000.0	725.088	2.3508	0.5915	0.00	73.37	0.2500	0.0000	85.00	7918.91	2048.45	9.7823
218	21.700	821.00	56000.0	728.646	2.3646	0.5892	0.00	73.35	0.2500	0.0000	85.00	7988.55	2069.27	9.7820
219	21.800	819.00	56000.0	732.221	2.3784	0.5869	0.00	73.33	0.2500	0.0000	85.00	8058.53	2090.21	9.7818
220	21.900	817.00	56000.0	735.812	2.3924	0.5846	0.00	73.30	0.2500	0.0000	85.00	8128.84	2111.29	9.7816
221	22.000	815.00	56000.0	739.421	2.4065	0.5823	0.00	73.28	0.2500	0.0000	85.00	8199.49	2132.49	9.7814
222	22.100	813.00	56000.0	743.047	2.4207	0.5799	0.00	73.26	0.2500	0.0000	85.00	8270.47	2153.83	9.7812
223	22.200	811.00	56000.0	746.690	2.4349	0.5775	0.00	73.24	0.2500	0.0000	85.00	8341.80	2175.29	9.7810
224	22.300	809.00	56000.0	750.351	2.4493	0.5751	0.00	73.22	0.2500	0.0000	85.00	8413.47	2196.89	9.7807
225	22.400	807.00	56000.0	754.031	2.4638	0.5727	0.00	73.20	0.2500	0.0000	85.00	8485.48	2218.63	9.7805
226	22.500	805.00	56000.0	757.729	2.4784	0.5703	0.00	73.17	0.2500	0.0000	85.00	8557.83	2240.49	9.7803
227	22.600	803.00	56000.0	761.445	2.4930	0.5678	0.00	73.15	0.2500	0.0000	85.00	8630.54	2262.49	9.7801
228	22.700	801.00	56000.0	765.181	2.5078	0.5654	0.00	73.13	0.2500	0.0000	85.00	8703.59	2284.63	9.7799
229	22.800	799.00	56000.0	768.937	2.5227	0.5629	0.00	73.11	0.2500	0.0000	85.00	8776.99	2306.90	9.7796
230	22.900	797.00	56000.0	772.712	2.5377	0.5604	0.00	73.09	0.2500	0.0000	85.00	8850.74	2329.31	9.7794
231	23.000	795.00	56000.0	776.507	2.5529	0.5579	0.00	73.07	0.2500	0.0000	85.00	8924.85	2351.86	9.7792
232	23.100	793.00	56000.0	780.323	2.5681	0.5553	0.00	73.05	0.2500	0.0000	85.00	8999.31	2374.54	9.7789
233	23.200	791.00	56000.0	784.159	2.5835	0.5528	0.00	73.03	0.2500	0.0000	85.00	9074.13	2397.37	9.7787
234	23.300	789.00	56000.0	788.017	2.5989	0.5502	0.00	73.01	0.2500	0.0000	85.00	9149.31	2420.33	9.7785
235	23.400	787.00	56000.0	791.892	2.6145	0.5491	0.00	72.98	0.2500	0.0000	85.00	9224.85	2443.43	9.7782
236	23.500	785.00	56000.0	795.783	2.6302	0.5481	0.00	72.96	0.2500	0.0000	85.00	9300.76	2466.67	9.7780
237	23.600	783.00	56000.0	799.690	2.6460	0.5471	0.00	72.94	0.2500	0.0000	85.00	9377.03	2490.06	9.7778
238	23.700	781.00	56000.0	803.611	2.6619	0.5461	0.00	72.92	0.2500	0.0000	85.00	9453.66	2513.59	9.7775
239	23.800	779.00	56000.0	807.549	2.6779	0.5451	0.00	72.90	0.2500	0.0000	85.00	9530.66	2537.26	9.7773
240	23.900	777.00	56000.0	811.502	2.6940	0.5441	0.00	72.88	0.2500	0.0000	85.00	9608.03	2561.07	9.7771
241	24.000	775.00	56000.0	815.472	2.7102	0.5431	0.00	72.86	0.2500	0.0000	85.00	9685.77	2585.03	9.7768
242	24.100	773.00	56000.0	819.458	2.7265	0.5421	0.00	72.84	0.2500	0.0000	85.00	9763.89	2609.13	9.7766
243	24.200	771.00	56000.0	823.462	2.7429	0.5411	0.00	72.82	0.2500	0.0000	85.00	9842.37	2633.38	9.7764
244	24.300	769.00	56000.0	827.482	2.7594	0.5400	0.00	72.80	0.2500	0.0000	85.00	9921.23	2657.78	9.7761
245	24.400	767.00	56000.0	831.520	2.7761	0.5390	0.00	72.78	0.2500	0.0000	85.00	10000.47	2682.32	9.7759
246	24.500	765.00	56000.0	835.576	2.7929	0.5379	0.00	72.76	0.2500	0.0000	85.00	10080.08	2707.01	9.7756
247	24.600	763.00	56000.0	839.650	2.8097	0.5369	0.00	72.74	0.2500	0.0000	85.00	10160.08	2731.84	9.7754
248	24.700	761.00	56000.0	843.743	2.8268	0.5358	0.00	72.72	0.2500	0.0000	85.00	10240.45	2756.83	9.7751
249	24.800	759.00	56000.0	847.854	2.8439	0.5348	0.00	72.70	0.2500	0.0000	85.00	10321.21	2781.96	9.7749
250	24.900	757.00	56000.0	851.984	2.8611	0.5337	0.00	72.68	0.2500	0.0000	85.00	10402.35	2807.25	9.7746
251	25.000	755.00	56000.0	856.133	2.8785	0.5326	0.00	72.66	0.2500	0.0000	85.00	10483.88	2832.69	9.7744
252	25.100	753.00	56000.0	860.302	2.8960	0.5315	0.00	72.64	0.2500	0.0000	85.00	10565.80	2858.27	9.7741
253	25.200	751.00	56000.0	864.490	2.9137	0.5304	0.00	72.62	0.2500	0.0000	85.00	10648.11	2884.01	9.7739
254	25.300	749.00	56000.0	868.699	2.9314	0.5293	0.00	72.60	0.2500	0.0000	85.00	10730.81	2909.91	9.7736
255	25.400	747.00	56000.0	872.929	2.9494	0.5282	0.00	72.59	0.2500	0.0000	85.00	10813.91	2935.96	9.7734
256	25.500	745.00	56000.0	877.179	2.9674	0.5270	0.00	72.57	0.2500	0.0000	85.00	10897.40	2962.16	9.7731
257	25.600	743.00	56000.0	881.450	2.9856	0.5259	0.00	72.55	0.2500	0.0000	85.00	10981.28	2988.52	9.7729
258	25.700	741.00	56000.0	885.750	3.0018	0.5249	0.00	72.53	0.2500	0.0000	85.00	11065.57	3015.03	9.7726
259	25.800	739.00	56000.0	890.076	3.0165	0.5240	0.00	72.51	0.2500	0.0000	85.00	11150.26	3041.70	9.7723
260	25.900	737.00	56000.0	894.429	3.0312	0.5230	0.00	72.49	0.2500	0.0000	85.00	11235.36	3068.53	9.7721
261	26.000	735.00	56000.0	898.809	3.0461	0.5221	0.00	72.47	0.2500	0.0000	85.00	11320.86	3095.53	9.7718
262	26.100	733.00	56000.0	903.217	3.0610	0.5212	0.00	72.45	0.2500	0.0000	85.00	11406.77	3122.68	9.7715
263	26.200	731.00	56000.0	907.652	3.0761	0.5202	0.00	72.43	0.2500	0.0000	85.00	11493.10	3149.99	9.7713
264	26.300	729.00	56000.0	912.114	3.0912	0.5193	0.00	72.42	0.2500	0.0000	85.00	11579.84	3177.46	9.7710
265	26.400	727.00	56000.0	916.604	3.1064	0.5183	0.00	72.40	0.2500	0.0000	85.00	11667.00	3205.10	9.7708
266	26.500	725.00	56000.0	921.122	3.1217	0.5174	0.00	72.38	0.2500	0.0000	85.00	11754.58	3232.90	9.7705
267	26.600	723.00	56000.0	925.669	3.1371	0.5164	0.00	72.36	0.2500	0.0000	85.00	11842.58	3260.87	9.7702
268	26.700	721.00	56000.0	930.244	3.1526	0.5155	0.00	72.34	0.2500	0.0000	85.00	11931.01	3289.00	9.7699
269	26.800	719.00	56000.0	934.848	3.1682	0.5145	0.00	72.32	0.2500	0.0000	85.00	12019.86	3317.30	9.7697
270	26.900	717.00	56000.0	939.481	3.1839	0.5135	0.00	72.31	0.2500	0.0000	85.00	12109.15	3345.77	9.7694
271	27.000	715.00	56000.0	944.143	3.1997	0.5125	0.00	72.29	0.2500	0.0000	85.00	12198.87	3374.41	9.7691
272	27.100	713.00	56000.0	948.835	3.2156	0.5115	0.00	72.27	0.2500	0.0000	85.00	12289.03	3403.22	9.7688
273	27.200	711.00	56000.0	953.556	3.2316	0.5105	0.00	72.25	0.2500	0.0000	85.00	12379.62	3432.20	9.7686
274	27.300	709.00	56000.0	958.308	3.2477	0.5095	0.00	72.23	0.2500	0.0000	85.00	12470.66	3461.36	9.7683
275	27.400	707.00	56000.0	963.089	3.2639	0.5085	0.00	72.22	0.2500	0.0000	85.00	12562.15	3490.69	9.7680
276	27.500	705.00	56000.0	967.902	3.2802	0.5075	0.00	72.20	0.2500	0.0000	85.00	12654.08	3520.19	9.7677
277	27.600	703.00	56000.0	972.744	3.2967	0.5065	0.00	72.18	0.2500	0.0000	85.00	12746.46	3549.87	9.7674
278	27.700	701.00	56000.0	977.618	3.3132	0.5054	0.00	72.16	0.2500	0.0000	85.00	12839.29	3579.73	9.7672
279	27.800	699.00	56000.0	982.523	3.3298	0.5044	0.00	72.15	0.2500	0.0000	85.00	12932.59	3609.76	9.7669
280	27.900	697.00	56000.0	987.459	3.3465	0.5033	0.00	72.13	0.2500	0.0000	85.00	13026.34	3639.97	9.7666
281	28.000	695.00	56000.0	992.427	3.3634	0.5023	0.00	72.11	0.2500	0.0000	85.00	13120.55	3670.37	9.7663
282	28.100	693.00	56000.0	997.427	3.3803	0.5012	0.00	72.09	0.2500	0.0000	85.00	13215.23	3700.94	9.7660
283	28.200	691.00	56000.0	1002.459	3.3974	0.5002	0.00	72.08	0.2500	0.0000	85.00	13310.37	3731.70	9.7657
284	28.300	689.00	56000.0	1007.522	3.4145	0.4997	0.00	72.06	0.2500	0.0000	85.00	13405.99	3762.65	9.7654
285	28.400	687.00	56000.0	1012.615	3.4318	0.4994	0.00	72.04	0.2500	0.0000	85.00	13502.08	3793.77	9.7651
286	28.500	685.00	56000.0	1017.738	3.4491	0.4991	0.00	72.03	0.2500	0.0000	85.00	13598.65	3825.09	9.7648
287	28.600	683.00	56000.0	1022.890	3.4666	0.4987	0.00	72.01	0.2500	0.0000	85.00	13695.69	3856.59	9.7645
288	28.700	681.00	56000.0	1028.073	3.4842	0.4984	0.00	71.99	0.2500	0.0000	85.00	13793.22	3888.28	9.7642
289	28.800	679.00	56000.0	1033.287	3.5018	0.4980	0.00	71.97	0.2500	0.0000	85.00	13891.24	3920.16	9.7639
290	28.900	677.00	56000.0	1038.531	3.5196	0.4977	0.00	71.96	0.2500	0.0000	85.00	13989.74	3952.23	9.7636
291	29.000	675.00	56000.0	1043.806	3.5375	0.4974	0.00	71.94	0.2500	0.0000	85.00	14088.73	3984.49	9.7633
292	29.100	673.00	56000.0	1049.112	3.5555	0.4970	0.00	71.92	0.2500	0.0000	85.00	14188.22	4016.94	9.7630
293	29.200	671.00	56000.0	1054.450	3.5736	0.4967	0.00	71.91	0.2500	0.0000	85.00	14288.20	4049.59	9.7627
294	29.300	669.00	56000.0	1059.820	3.5918	0.4963	0.00	71.89	0.2500	0.0000	85.00	14388.68	4082.43	9.7624
295	29.400	667.00	56000.0	1065.222	3.6101	0.4960	0.00	71.88	0.2500	0.0000	85.00	14489.67	4115.47	9.7621
296	29.500	665.00	56000.0	1070.656	3.6285	0.4956	0.00	71.86	0.2500	0.0000	85.00	14591.16	4148.71	9.7618
297	29.600	663.00	56000.0	1076.123	3.6470	0.4952	0.00	71.84	0.2500	0.0000	85.00	14693.15	4182.14	9.7615
298	29.700	661.00	56000.0	1081.623	3.6657	0.4949	0.00	71.83	0.2500	0.0000	85.00	14795.66	4215.78	9.7612
299	29.800	659.00	56000.0	1087.156	3.6844	0.4945	0.00	71.81	0.2500	0.0000	85.00	14898.69	4249.61	9.7608
300	29.900	657.00	56000.0	1092.722	3.7033	0.4942	0.00	71.79	0.2500	0.0000	85.00	15002.23	4283.65	9.7605
301	30.000	655.00	56000.0	1098.322	3.7222	0.4938	0.00	71.78	0.2500	0.0000	85.00	15106.29	4317.89	9.7602
