N	t(c)	m(kg)	P(H)	V(m/s)	M	Cxa	alpha(grad)	theta_c(grad)	Cya_alpha	omega_z(1/s)	theta(grad)	y(m)	x(m)	g(m/s2)
1	0.000	1255.00	56000.0	10.000	0.0294	0.3000	0.00	85.00	0.2500	0.0000	85.00	0.00	0.00	9.8066
2	0.100	1253.00	56000.0	13.489	0.0396	0.3000	0.36	84.64	0.2500	0.0000	85.00	1.17	0.11	9.8066
3	0.200	1251.00	56000.0	16.984	0.0499	0.3000	0.58	84.42	0.2500	0.0000	85.00	2.69	0.25	9.8066
4	0.300	1249.00	56000.0	20.487	0.0602	0.3000	0.72	84.28	0.2500	0.0000	85.00	4.55	0.44	9.8066
5	0.400	1247.00	56000.0	23.996	0.0705	0.3000	0.82	84.18	0.2500	0.0000	85.00	6.76	0.66	9.8066
6	0.500	1245.00	56000.0	27.512	0.0809	0.3000	0.89	84.11	0.2500	0.0000	85.00	9.33	0.92	9.8066
7	0.600	1243.00	56000.0	31.035	0.0912	0.3000	0.95	84.05	0.2500	0.0000	85.00	12.24	1.23	9.8066
8	0.700	1241.00	56000.0	34.564	0.1016	0.3000	0.99	84.01	0.2500	0.0000	85.00	15.50	1.57	9.8066
9	0.800	1239.00	56000.0	38.100	0.1120	0.3000	1.03	83.97	0.2500	0.0000	85.00	19.11	1.95	9.8066
10	0.900	1237.00	56000.0	41.642	0.1224	0.3000	1.06	83.94	0.2500	0.0000	85.00	23.08	2.37	9.8066
11	1.000	1235.00	56000.0	45.190	0.1328	0.3000	1.08	83.92	0.2500	0.0000	85.00	27.39	2.83	9.8066
12	1.100	1233.00	56000.0	48.745	0.1433	0.3000	1.10	83.90	0.2500	0.0000	85.00	32.06	3.32	9.8066
13	1.200	1231.00	56000.0	52.306	0.1538	0.3000	1.12	83.88	0.2500	0.0000	85.00	37.09	3.86	9.8065
14	1.300	1229.00	56000.0	55.872	0.1643	0.3000	1.14	83.86	0.2500	0.0000	85.00	42.47	4.44	9.8065
15	1.400	1227.00	56000.0	59.445	0.1748	0.3000	1.15	83.85	0.2500	0.0000	85.00	48.20	5.06	9.8065
16	1.500	1225.00	56000.0	63.024	0.1853	0.3000	1.16	83.84	0.2500	0.0000	85.00	54.29	5.71	9.8065
17	1.600	1223.00	56000.0	66.609	0.1959	0.3000	1.17	83.83	0.2500	0.0000	85.00	60.73	6.41	9.8065
18	1.700	1221.00	56000.0	70.199	0.2064	0.3000	1.18	83.82	0.2500	0.0000	85.00	67.53	7.15	9.8064
19	1.800	1219.00	56000.0	73.796	0.2170	0.3000	1.19	83.81	0.2500	0.0000	85.00	74.69	7.92	9.8064
20	1.900	1217.00	56000.0	77.398	0.2277	0.3000	1.20	83.80	0.2500	0.0000	85.00	82.21	8.74	9.8064
21	2.000	1215.00	56000.0	81.005	0.2383	0.3000	1.20	83.80	0.2500	0.0000	85.00	90.08	9.59	9.8064
22	2.100	1213.00	56000.0	84.619	0.2489	0.3000	1.21	83.79	0.2500	0.0000	85.00	98.31	10.49	9.8063
23	2.200	1211.00	56000.0	88.237	0.2596	0.3000	1.22	83.78	0.2500	0.0000	85.00	106.90	11.42	9.8063
24	2.300	1209.00	56000.0	91.861	0.2703	0.3000	1.22	83.78	0.2500	0.0000	85.00	115.86	12.40	9.8063
25	2.400	1207.00	56000.0	95.491	0.2810	0.3000	1.22	83.78	0.2500	0.0000	85.00	125.17	13.42	9.8063
26	2.500	1205.00	56000.0	99.125	0.2917	0.3000	1.23	83.77	0.2500	0.0000	85.00	134.84	14.47	9.8062
27	2.600	1203.00	56000.0	102.765	0.3025	0.3000	1.23	83.77	0.2500	0.0000	85.00	144.88	15.57	9.8062
28	2.700	1201.00	56000.0	106.410	0.3132	0.3000	1.23	83.77	0.2500	0.0000	85.00	155.27	16.70	9.8062
29	2.800	1199.00	56000.0	110.060	0.3240	0.3000	1.24	83.76	0.2500	0.0000	85.00	166.03	17.88	9.8061
30	2.900	1197.00	56000.0	113.715	0.3348	0.3000	1.24	83.76	0.2500	0.0000	85.00	177.15	19.09	9.8061
31	3.000	1195.00	56000.0	117.375	0.3457	0.3000	1.24	83.76	0.2500	0.0000	85.00	188.64	20.35	9.8061
32	3.100	1193.00	56000.0	121.039	0.3565	0.3000	1.24	83.76	0.2500	0.0000	85.00	200.49	21.65	9.8060
33	3.200	1191.00	56000.0	124.709	0.3674	0.3000	1.25	83.75	0.2500	0.0000	85.00	212.71	22.98	9.8060
34	3.300	1189.00	56000.0	128.383	0.3782	0.3000	1.25	83.75	0.2500	0.0000	85.00	225.28	24.36	9.8060
35	3.400	1187.00	56000.0	132.062	0.3891	0.3000	1.25	83.75	0.2500	0.0000	85.00	238.23	25.78	9.8059
36	3.500	1185.00	56000.0	135.745	0.4000	0.3000	1.25	83.75	0.2500	0.0000	85.00	251.54	27.23	9.8059
37	3.600	1183.00	56000.0	139.432	0.4110	0.3000	1.25	83.75	0.2500	0.0000	85.00	265.22	28.73	9.8058
38	3.700	1181.00	56000.0	143.124	0.4219	0.3000	1.25	83.75	0.2500	0.0000	85.00	279.26	30.27	9.8058
39	3.800	1179.00	56000.0	146.821	0.4329	0.3000	1.25	83.75	0.2500	0.0000	85.00	293.67	31.85	9.8057
40	3.900	1177.00	56000.0	150.521	0.4439	0.3000	1.25	83.75	0.2500	0.0000	85.00	308.45	33.47	9.8057
41	4.000	1175.00	56000.0	154.226	0.4549	0.3000	1.25	83.75	0.2500	0.0000	85.00	323.60	35.13	9.8057
42	4.100	1173.00	56000.0	157.935	0.4659	0.3000	1.25	83.75	0.2500	0.0000	85.00	339.11	36.83	9.8056
43	4.200	1171.00	56000.0	161.648	0.4769	0.3000	1.25	83.75	0.2500	0.0000	85.00	355.00	38.57	9.8056
44	4.300	1169.00	56000.0	165.365	0.4880	0.3000	1.25	83.75	0.2500	0.0000	85.00	371.25	40.35	9.8055
45	4.400	1167.00	56000.0	169.085	0.4991	0.3000	1.25	83.75	0.2500	0.0000	85.00	387.87	42.17	9.8055
46	4.500	1165.00	56000.0	172.810	0.5102	0.3000	1.25	83.75	0.2500	0.0000	85.00	404.87	44.03	9.8054
47	4.600	1163.00	56000.0	176.538	0.5213	0.3000	1.25	83.75	0.2500	0.0000	85.00	422.23	45.94	9.8053
48	4.700	1161.00	56000.0	180.270	0.5324	0.3000	1.25	83.75	0.2500	0.0000	85.00	439.96	47.88	9.8053
49	4.800	1159.00	56000.0	184.005	0.5435	0.3000	1.25	83.75	0.2500	0.0000	85.00	458.07	49.86	9.8052
50	4.900	1157.00	56000.0	187.744	0.5547	0.3047	1.25	83.75	0.2500	0.0000	85.00	476.55	51.89	9.8052
51	5.000	1155.00	56000.0	191.482	0.5659	0.3159	1.25	83.75	0.2500	0.0000	85.00	495.39	53.95	9.8051
52	5.100	1153.00	56000.0	195.219	0.5770	0.3270	1.25	83.75	0.2500	0.0000	85.00	514.61	56.06	9.8051
53	5.200	1151.00	56000.0	198.953	0.5882	0.3382	1.25	83.75	0.2500	0.0000	85.00	534.21	58.21	9.8050
54	5.300	1149.00	56000.0	202.685	0.5994	0.3494	1.25	83.75	0.2500	0.0000	85.00	554.17	60.39	9.8049
55	5.400	1147.00	56000.0	206.414	0.6105	0.3605	1.25	83.75	0.2500	0.0000	85.00	574.50	62.62	9.8049
56	5.500	1145.00	56000.0	210.139	0.6217	0.3717	1.25	83.75	0.2500	0.0000	85.00	595.21	64.89	9.8048
57	5.600	1143.00	56000.0	213.861	0.6329	0.3829	1.25	83.75	0.2500	0.0000	85.00	616.28	67.19	9.8047
58	5.700	1141.00	56000.0	217.578	0.6440	0.3940	1.25	83.75	0.2500	0.0000	85.00	637.72	69.54	9.8047
59	5.800	1139.00	56000.0	221.290	0.6552	0.4052	1.25	83.75	0.2500	0.0000	85.00	659.54	71.93	9.8046
60	5.900	1137.00	56000.0	224.997	0.6663	0.4163	1.25	83.75	0.2500	0.0000	85.00	681.72	74.36	9.8045
61	6.000	1135.00	56000.0	228.698	0.6775	0.4275	1.25	83.75	0.2500	0.0000	85.00	704.27	76.83	9.8045
62	6.100	1133.00	56000.0	232.392	0.6886	0.4386	1.24	83.76	0.2500	0.0000	85.00	727.19	79.33	9.8044
63	6.200	1131.00	56000.0	236.080	0.6997	0.4497	1.24	83.76	0.2500	0.0000	85.00	750.47	81.88	9.8043
64	6.300	1129.00	56000.0	239.760	0.7108	0.4608	1.24	83.76	0.2500	0.0000	85.00	774.12	84.47	9.8043
65	6.400	1127.00	56000.0	243.432	0.7219	0.4719	1.24	83.76	0.2500	0.0000	85.00	798.14	87.09	9.8042
66	6.500	1125.00	56000.0	247.096	0.7330	0.4830	1.24	83.76	0.2500	0.0000	85.00	822.52	89.76	9.8041
67	6.600	1123.00	56000.0	250.751	0.7440	0.4940	1.24	83.76	0.2500	0.0000	85.00	847.26	92.47	9.8040
68	6.700	1121.00	56000.0	254.397	0.7550	0.5050	1.24	83.76	0.2500	0.0000	85.00	872.37	95.21	9.8040
69	6.800	1119.00	56000.0	258.033	0.7661	0.5161	1.24	83.76	0.2500	0.0000	85.00	897.84	97.99	9.8039
70	6.900	1117.00	56000.0	261.658	0.7771	0.5271	1.23	83.77	0.2500	0.0000	85.00	923.67	100.82	9.8038
71	7.000	1115.00	56000.0	265.272	0.7880	0.5380	1.23	83.77	0.2500	0.0000	85.00	949.86	103.68	9.8037
72	7.100	1113.00	56000.0	268.875	0.7990	0.5490	1.23	83.77	0.2500	0.0000	85.00	976.41	106.58	9.8036
73	7.200	1111.00	56000.0	272.463	0.8099	0.5648	1.23	83.77	0.2451	0.0000	85.00	1003.32	109.51	9.8036
74	7.300	1109.00	56000.0	276.035	0.8208	0.5811	1.23	83.77	0.2396	0.0000	85.00	1030.58	112.49	9.8035
75	7.400	1107.00	56000.0	279.589	0.8316	0.5974	1.23	83.77	0.2342	0.0000	85.00	1058.20	115.51	9.8034
76	7.500	1105.00	56000.0	283.124	0.8424	0.6136	1.23	83.77	0.2288	0.0000	85.00	1086.17	118.56	9.8033
77	7.600	1103.00	56000.0	286.639	0.8531	0.6297	1.23	83.77	0.2234	0.0000	85.00	1114.49	121.65	9.8032
78	7.700	1101.00	56000.0	290.135	0.8638	0.6457	1.22	83.78	0.2181	0.0000	85.00	1143.16	124.77	9.8031
79	7.800	1099.00	56000.0	293.610	0.8745	0.6617	1.22	83.78	0.2128	0.0000	85.00	1172.18	127.94	9.8030
80	7.900	1097.00	56000.0	297.064	0.8850	0.6776	1.22	83.78	0.2075	0.0000	85.00	1201.54	131.14	9.8029
81	8.000	1095.00	56000.0	300.496	0.8956	0.6934	1.22	83.78	0.2022	0.0000	85.00	1231.24	134.38	9.8029
82	8.100	1093.00	56000.0	303.906	0.9060	0.7085	1.22	83.78	0.2060	0.0000	85.00	1261.28	137.65	9.8028
83	8.200	1091.00	56000.0	307.294	0.9165	0.7231	1.22	83.78	0.2165	0.0000	85.00	1291.66	140.96	9.8027
84	8.300	1089.00	56000.0	310.659	0.9268	0.7376	1.22	83.78	0.2268	0.0000	85.00	1322.38	144.31	9.8026
85	8.400	1087.00	56000.0	314.001	0.9371	0.7520	1.21	83.79	0.2371	0.0000	85.00	1353.43	147.69	9.8025
86	8.500	1085.00	56000.0	317.319	0.9474	0.7664	1.21	83.79	0.2474	0.0000	85.00	1384.81	151.10	9.8024
87	8.600	1083.00	56000.0	320.614	0.9576	0.7806	1.21	83.79	0.2576	0.0000	85.00	1416.52	154.56	9.8023
88	8.700	1081.00	56000.0	323.883	0.9677	0.7948	1.21	83.79	0.2677	0.0000	85.00	1448.55	158.04	9.8022
89	8.800	1079.00	56000.0	327.128	0.9778	0.8089	1.21	83.79	0.2778	0.0000	85.00	1480.91	161.56	9.8021
90	8.900	1077.00	56000.0	330.347	0.9878	0.8229	1.21	83.79	0.2878	0.0000	85.00	1513.59	165.12	9.8020
91	9.000	1075.00	56000.0	333.541	0.9977	0.8368	1.20	83.80	0.2977	0.0000	85.00	1546.59	168.70	9.8019
92	9.100	1073.00	56000.0	336.712	1.0076	0.8425	1.20	83.80	0.3013	0.0000	85.00	1579.91	172.32	9.8018
93	9.200	1071.00	56000.0	339.869	1.0174	0.8458	1.20	83.80	0.3029	0.0000	85.00	1613.54	175.98	9.8017
94	9.300	1069.00	56000.0	343.014	1.0273	0.8491	1.20	83.80	0.3045	0.0000	85.00	1647.49	179.67	9.8016
95	9.400	1067.00	56000.0	346.144	1.0370	0.8523	1.20	83.80	0.3062	0.0000	85.00	1681.74	183.38	9.8015
96	9.500	1065.00	56000.0	349.262	1.0468	0.8556	1.19	83.81	0.3078	0.0000	85.00	1716.31	187.14	9.8014
97	9.600	1063.00	56000.0	352.365	1.0565	0.8588	1.19	83.81	0.3094	0.0000	85.00	1751.19	190.92	9.8012
98	9.700	1061.00	56000.0	355.456	1.0663	0.8616	1.19	83.81	0.3006	0.0000	85.00	1786.37	194.74	9.8011
99	9.800	1059.00	56000.0	358.533	1.0759	0.8640	1.19	83.81	0.2861	0.0000	85.00	1821.86	198.59	9.8010
100	9.900	1057.00	56000.0	361.598	1.0856	0.8664	1.19	83.81	0.2716	0.0000	85.00	1857.66	202.47	9.8009
101	10.000	1055.00	56000.0	364.650	1.0952	0.8688	1.18	83.82	0.2572	0.0000	85.00	1893.76	206.38	9.8008
102	10.100	1053.00	56000.0	367.691	1.1048	0.8681	1.18	83.82	0.2500	0.0000	85.00	1930.17	210.32	9.8007
103	10.200	1051.00	56000.0	370.727	1.1144	0.8642	1.18	83.82	0.2500	0.0000	85.00	1966.87	214.30	9.8006
104	10.300	1049.00	56000.0	373.760	1.1240	0.8604	1.18	83.82	0.2500	0.0000	85.00	2003.88	218.30	9.8005
105	10.400	1047.00	56000.0	376.790	1.1336	0.8565	1.18	83.82	0.2500	0.0000	85.00	2041.19	222.34	9.8004
106	10.500	1045.00	56000.0	379.817	1.1433	0.8527	1.17	83.83	0.2500	0.0000	85.00	2078.80	226.41	9.8002
107	10.600	1043.00	56000.0	382.841	1.1529	0.8488	1.17	83.83	0.2500	0.0000	85.00	2116.71	230.51	9.8001
108	10.700	1041.00	56000.0	385.863	1.1625	0.8450	1.17	83.83	0.2500	0.0000	85.00	2154.92	234.64	9.8000
109	10.800	1039.00	56000.0	388.883	1.1721	0.8411	1.17	83.83	0.2500	0.0000	85.00	2193.44	238.81	9.7999
110	10.900	1037.00	56000.0	391.900	1.1818	0.8373	1.17	83.83	0.2500	0.0000	85.00	2232.25	243.00	9.7998
111	11.000	1035.00	56000.0	394.916	1.1914	0.8334	1.16	83.84	0.2500	0.0000	85.00	2271.36	247.23	9.7996
112	11.100	1033.00	56000.0	397.929	1.2011	0.8297	1.16	83.84	0.2500	0.0000	85.00	2310.78	251.48	9.7995
113	11.200	1031.00	56000.0	400.940	1.2107	0.8268	1.16	83.84	0.2500	0.0000	85.00	2350.49	255.77	9.7994
114	11.300	1029.00	56000.0	403.949	1.2204	0.8239	1.16	83.84	0.2500	0.0000	85.00	2390.50	260.09	9.7993
115	11.400	1027.00	56000.0	406.954	1.2301	0.8210	1.16	83.84	0.2500	0.0000	85.00	2430.81	264.44	9.7992
116	11.500	1025.00	56000.0	409.956	1.2398	0.8181	1.15	83.85	0.2500	0.0000	85.00	2471.42	268.82	9.7990
117	11.600	1023.00	56000.0	412.956	1.2494	0.8152	1.15	83.85	0.2500	0.0000	85.00	2512.33	273.23	9.7989
118	11.700	1021.00	56000.0	415.954	1.2591	0.8123	1.15	83.85	0.2500	0.0000	85.00	2553.54	277.67	9.7988
119	11.800	1019.00	56000.0	418.949	1.2688	0.8094	1.15	83.85	0.2500	0.0000	85.00	2595.04	282.14	9.7986
120	11.900	1017.00	56000.0	421.942	1.2785	0.8064	1.15	83.85	0.2500	0.0000	85.00	2636.85	286.64	9.7985
121	12.000	1015.00	56000.0	424.934	1.2882	0.8035	1.14	83.86	0.2500	0.0000	85.00	2678.95	291.18	9.7984
122	12.100	1013.00	56000.0	427.923	1.2980	0.8006	1.14	83.86	0.2500	0.0000	85.00	2721.34	295.74	9.7983
123	12.200	1011.00	56000.0	430.910	1.3077	0.7992	1.14	83.86	0.2500	0.0000	85.00	2764.04	300.33	9.7981
124	12.300	1009.00	56000.0	433.892	1.3174	0.7983	1.14	83.86	0.2500	0.0000	85.00	2807.03	304.96	9.7980
125	12.400	1007.00	56000.0	436.869	1.3272	0.7973	1.14	83.86	0.2500	0.0000	85.00	2850.32	309.61	9.7979
126	12.500	1005.00	56000.0	439.841	1.3369	0.7963	1.13	83.87	0.2500	0.0000	85.00	2893.91	314.30	9.7977
127	12.600	1003.00	56000.0	442.808	1.3466	0.7953	1.13	83.87	0.2500	0.0000	85.00	2937.79	319.01	9.7976
128	12.700	1001.00	56000.0	445.770	1.3563	0.7944	1.13	83.87	0.2500	0.0000	85.00	2981.96	323.76	9.7975
129	12.800	999.00	56000.0	448.728	1.3661	0.7934	1.13	83.87	0.2500	0.0000	85.00	3026.43	328.54	9.7973
130	12.900	997.00	56000.0	451.681	1.3758	0.7924	1.13	83.87	0.2500	0.0000	85.00	3071.19	333.34	9.7972
131	13.000	995.00	56000.0	454.630	1.3856	0.7914	1.12	83.88	0.2500	0.0000	85.00	3116.25	338.18	9.7970
132	13.100	993.00	56000.0	457.575	1.3953	0.7905	1.12	83.88	0.2500	0.0000	85.00	3161.60	343.04	9.7969
133	13.200	991.00	56000.0	460.516	1.4050	0.7888	1.12	83.88	0.2500	0.0000	85.00	3207.24	347.94	9.7968
134	13.300	989.00	56000.0	463.456	1.4148	0.7865	1.12	83.88	0.2500	0.0000	85.00	3253.18	352.86	9.7966
135	13.400	987.00	56000.0	466.395	1.4246	0.7843	1.12	83.88	0.2500	0.0000	85.00	3299.41	357.81	9.7965
136	13.500	985.00	56000.0	469.334	1.4344	0.7820	1.11	83.89	0.2500	0.0000	85.00	3345.93	362.80	9.7963
137	13.600	983.00	56000.0	472.271	1.4442	0.7797	1.11	83.89	0.2500	0.0000	85.00	3392.74	367.81	9.7962
138	13.700	981.00	56000.0	475.209	1.4540	0.7774	1.11	83.89	0.2500	0.0000	85.00	3439.84	372.85	9.7960
139	13.800	979.00	56000.0	478.147	1.4638	0.7751	1.11	83.89	0.2500	0.0000	85.00	3487.24	377.93	9.7959
140	13.900	977.00	56000.0	481.084	1.4737	0.7728	1.11	83.89	0.2500	0.0000	85.00	3534.93	383.03	9.7958
141	14.000	975.00	56000.0	484.022	1.4835	0.7705	1.10	83.90	0.2500	0.0000	85.00	3582.91	388.16	9.7956
142	14.100	973.00	56000.0	486.961	1.4934	0.7682	1.10	83.90	0.2500	0.0000	85.00	3631.19	393.32	9.7955
143	14.200	971.00	56000.0	489.900	1.5033	0.7659	1.10	83.90	0.2500	0.0000	85.00	3679.75	398.51	9.7953
144	14.300	969.00	56000.0	492.840	1.5133	0.7636	1.10	83.90	0.2500	0.0000	85.00	3728.61	403.73	9.7952
145	14.400	967.00	56000.0	495.781	1.5232	0.7612	1.09	83.91	0.2500	0.0000	85.00	3777.76	408.98	9.7950
146	14.500	965.00	56000.0	498.723	1.5332	0.7589	1.09	83.91	0.2500	0.0000	85.00	3827.21	414.26	9.7949
147	14.600	963.00	56000.0	501.667	1.5432	0.7566	1.09	83.91	0.2500	0.0000	85.00	3876.94	419.57	9.7947
148	14.700	961.00	56000.0	504.612	1.5532	0.7542	1.09	83.91	0.2500	0.0000	85.00	3926.97	424.90	9.7945
149	14.800	959.00	56000.0	507.560	1.5633	0.7519	1.09	83.91	0.2500	0.0000	85.00	3977.30	430.27	9.7944
150	14.900	957.00	56000.0	510.509	1.5733	0.7496	1.08	83.92	0.2500	0.0000	85.00	4027.91	435.67	9.7942
151	15.000	955.00	56000.0	513.461	1.5834	0.7472	1.08	83.92	0.2500	0.0000	85.00	4078.82	441.09	9.7941
152	15.100	953.00	56000.0	516.415	1.5936	0.7448	1.08	83.92	0.2500	0.0000	85.00	4130.03	446.55	9.7939
153	15.200	951.00	56000.0	519.372	1.6037	0.7425	1.08	83.92	0.2500	0.0000	85.00	4181.53	452.03	9.7938
154	15.300	949.00	56000.0	522.332	1.6139	0.7401	1.08	83.92	0.2500	0.0000	85.00	4233.32	457.55	9.7936
155	15.400	947.00	56000.0	525.295	1.6241	0.7377	1.07	83.93	0.2500	0.0000	85.00	4285.41	463.09	9.7934
156	15.500	945.00	56000.0	528.262	1.6343	0.7353	1.07	83.93	0.2500	0.0000	85.00	4337.79	468.66	9.7933
157	15.600	943.00	56000.0	531.232	1.6446	0.7329	1.07	83.93	0.2500	0.0000	85.00	4390.47	474.26	9.7931
158	15.700	941.00	56000.0	534.206	1.6549	0.7305	1.07	83.93	0.2500	0.0000	85.00	4443.44	479.89	9.7930
159	15.800	939.00	56000.0	537.184	1.6652	0.7281	1.06	83.94	0.2500	0.0000	85.00	4496.71	485.55	9.7928
160	15.900	937.00	56000.0	540.166	1.6756	0.7257	1.06	83.94	0.2500	0.0000	85.00	4550.27	491.24	9.7926
161	16.000	935.00	56000.0	543.153	1.6860	0.7233	1.06	83.94	0.2500	0.0000	85.00	4604.14	496.96	9.7925
162	16.100	933.00	56000.0	546.144	1.6965	0.7208	1.06	83.94	0.2500	0.0000	85.00	4658.30	502.71	9.7923
163	16.200	931.00	56000.0	549.141	1.7069	0.7184	1.06	83.94	0.2500	0.0000	85.00	4712.76	508.49	9.7921
164	16.300	929.00	56000.0	552.142	1.7174	0.7159	1.05	83.95	0.2500	0.0000	85.00	4767.51	514.30	9.7920
165	16.400	927.00	56000.0	555.149	1.7280	0.7135	1.05	83.95	0.2500	0.0000	85.00	4822.57	520.14	9.7918
166	16.500	925.00	56000.0	558.162	1.7386	0.7110	1.05	83.95	0.2500	0.0000	85.00	4877.92	526.01	9.7916
167	16.600	923.00	56000.0	561.180	1.7492	0.7085	1.05	83.95	0.2500	0.0000	85.00	4933.58	531.90	9.7914
168	16.700	921.00	56000.0	564.205	1.7599	0.7060	1.05	83.95	0.2500	0.0000	85.00	4989.54	537.83	9.7913
169	16.800	919.00	56000.0	567.236	1.7706	0.7035	1.04	83.96	0.2500	0.0000	85.00	5045.79	543.79	9.7911
170	16.900	917.00	56000.0	570.273	1.7814	0.7010	1.04	83.96	0.2500	0.0000	85.00	5102.35	549.77	9.7909
171	17.000	915.00	56000.0	573.318	1.7922	0.6985	1.04	83.96	0.2500	0.0000	85.00	5159.22	555.79	9.7908
172	17.100	913.00	56000.0	576.369	1.8030	0.6960	1.04	83.96	0.2500	0.0000	85.00	5216.38	561.84	9.7906
173	17.200	911.00	56000.0	579.428	1.8139	0.6934	1.03	83.97	0.2500	0.0000	85.00	5273.85	567.91	9.7904
174	17.300	909.00	56000.0	582.494	1.8249	0.6909	1.03	83.97	0.2500	0.0000	85.00	5331.62	574.02	9.7902
175	17.400	907.00	56000.0	585.568	1.8359	0.6883	1.03	83.97	0.2500	0.0000	85.00	5389.70	580.16	9.7900
176	17.500	905.00	56000.0	588.650	1.8469	0.6857	1.03	83.97	0.2500	0.0000	85.00	5448.09	586.32	9.7899
177	17.600	903.00	56000.0	591.740	1.8580	0.6831	1.03	83.97	0.2500	0.0000	85.00	5506.78	592.52	9.7897
178	17.700	901.00	56000.0	594.839	1.8692	0.6805	1.02	83.98	0.2500	0.0000	85.00	5565.78	598.75	9.7895
179	17.800	899.00	56000.0	597.947	1.8804	0.6779	1.02	83.98	0.2500	0.0000	85.00	5625.09	605.01	9.7893
180	17.900	897.00	56000.0	601.064	1.8916	0.6753	1.02	83.98	0.2500	0.0000	85.00	5684.71	611.29	9.7891
181	18.000	895.00	56000.0	604.190	1.9029	0.6726	1.02	83.98	0.2500	0.0000	85.00	5744.64	617.61	9.7889
182	18.100	893.00	56000.0	607.326	1.9143	0.6700	1.02	83.98	0.2500	0.0000	85.00	5804.89	623.96	9.7888
183	18.200	891.00	56000.0	610.472	1.9257	0.6673	1.01	83.99	0.2500	0.0000	85.00	5865.44	630.34	9.7886
184	18.300	889.00	56000.0	613.627	1.9372	0.6646	1.01	83.99	0.2500	0.0000	85.00	5926.31	636.75	9.7884
185	18.400	887.00	56000.0	616.793	1.9488	0.6620	1.01	83.99	0.2500	0.0000	85.00	5987.49	643.19	9.7882
186	18.500	885.00	56000.0	619.970	1.9604	0.6592	1.01	83.99	0.2500	0.0000	85.00	6048.99	649.66	9.7880
187	18.600	883.00	56000.0	623.158	1.9720	0.6565	1.00	84.00	0.2500	0.0000	85.00	6110.81	656.17	9.7878
188	18.700	881.00	56000.0	626.357	1.9838	0.6538	1.00	84.00	0.2500	0.0000	85.00	6172.94	662.70	9.7876
189	18.800	879.00	56000.0	629.567	1.9956	0.6510	1.00	84.00	0.2500	0.0000	85.00	6235.39	669.27	9.7874
190	18.900	877.00	56000.0	632.788	2.0074	0.6488	1.00	84.00	0.2500	0.0000	85.00	6298.16	675.86	9.7872
191	19.000	875.00	56000.0	636.020	2.0194	0.6468	1.00	84.00	0.2500	0.0000	85.00	6361.26	682.49	9.7871
192	19.100	873.00	56000.0	639.260	2.0313	0.6448	0.99	84.01	0.2500	0.0000	85.00	6424.67	689.15	9.7869
193	19.200	871.00	56000.0	642.511	2.0434	0.6428	0.99	84.01	0.2500	0.0000	85.00	6488.41	695.84	9.7867
194	19.300	869.00	56000.0	645.771	2.0555	0.6408	0.99	84.01	0.2500	0.0000	85.00	6552.47	702.56	9.7865
195	19.400	867.00	56000.0	649.042	2.0677	0.6387	0.99	84.01	0.2500	0.0000	85.00	6616.86	709.32	9.7863
196	19.500	865.00	56000.0	652.324	2.0799	0.6367	0.99	84.01	0.2500	0.0000	85.00	6681.57	716.10	9.7861
197	19.600	863.00	56000.0	655.616	2.0922	0.6346	0.98	84.02	0.2500	0.0000	85.00	6746.61	722.92	9.7859
198	19.700	861.00	56000.0	658.920	2.1046	0.6326	0.98	84.02	0.2500	0.0000	85.00	6811.98	729.77	9.7857
199	19.800	859.00	56000.0	662.235	2.1170	0.6305	0.98	84.02	0.2500	0.0000	85.00	6877.68	736.65	9.7855
200	19.900	857.00	56000.0	665.561	2.1295	0.6284	0.98	84.02	0.2500	0.0000	85.00	6943.71	743.57	9.7853
201	20.000	855.00	56000.0	668.900	2.1421	0.6263	0.97	84.03	0.2500	0.0000	85.00	7010.07	750.52	9.7851
202	20.100	853.00	56000.0	672.251	2.1548	0.6242	0.97	84.03	0.2500	0.0000	85.00	7076.76	757.49	9.7849
203	20.200	851.00	56000.0	675.614	2.1675	0.6221	0.97	84.03	0.2500	0.0000	85.00	7143.79	764.50	9.7846
204	20.300	849.00	56000.0	678.990	2.1803	0.6200	0.97	84.03	0.2500	0.0000	85.00	7211.15	771.55	9.7844
205	20.400	847.00	56000.0	682.378	2.1932	0.6178	0.97	84.03	0.2500	0.0000	85.00	7278.85	778.62	9.7842
206	20.500	845.00	56000.0	685.781	2.2061	0.6156	0.96	84.04	0.2500	0.0000	85.00	7346.89	785.73	9.7840
207	20.600	843.00	56000.0	689.196	2.2191	0.6135	0.96	84.04	0.2500	0.0000	85.00	7415.27	792.88	9.7838
208	20.700	841.00	56000.0	692.626	2.2323	0.6113	0.96	84.04	0.2500	0.0000	85.00	7483.98	800.05	9.7836
209	20.800	839.00	56000.0	696.069	2.2455	0.6091	0.96	84.04	0.2500	0.0000	85.00	7553.04	807.26	9.7834
210	20.900	837.00	56000.0	699.527	2.2587	0.6069	0.96	84.04	0.2500	0.0000	85.00	7622.45	814.50	9.7832
211	21.000	835.00	56000.0	703.000	2.2721	0.6046	0.95	84.05	0.2500	0.0000	85.00	7692.19	821.78	9.7830
212	21.100	833.00	56000.0	706.488	2.2856	0.6024	0.95	84.05	0.2500	0.0000	85.00	7762.29	829.08	9.7827
213	21.200	831.00	56000.0	709.991	2.2991	0.6001	0.95	84.05	0.2500	0.0000	85.00	7832.73	836.43	9.7825
214	21.300	829.00	56000.0	713.509	2.3127	0.5979	0.95	84.05	0.2500	0.0000	85.00	7903.52	843.80	9.7823
215	21.400	827.00	56000.0	717.043	2.3265	0.5956	0.95	84.05	0.2500	0.0000	85.00	7974.67	851.21	9.7821
216	21.500	825.00	56000.0	720.594	2.3403	0.5933	0.94	84.06	0.2500	0.0000	85.00	8046.16	858.66	9.7819
217	21.600	823.00	56000.0	724.161	2.3542	0.5910	0.94	84.06	0.2500	0.0000	85.00	8118.01	866.14	9.7817
218	21.700	821.00	56000.0	727.744	2.3682	0.5886	0.94	84.06	0.2500	0.0000	85.00	8190.22	873.65	9.7814
219	21.800	819.00	56000.0	731.345	2.3823	0.5863	0.94	84.06	0.2500	0.0000	85.00	8262.78	881.20	9.7812
220	21.900	817.00	56000.0	734.963	2.3965	0.5839	0.93	84.07	0.2500	0.0000	85.00	8335.70	888.78	9.7810
221	22.000	815.00	56000.0	738.598	2.4108	0.5815	0.93	84.07	0.2500	0.0000	85.00	8408.98	896.39	9.7808
222	22.100	813.00	56000.0	742.251	2.4252	0.5791	0.93	84.07	0.2500	0.0000	85.00	8482.63	904.05	9.7805
223	22.200	811.00	56000.0	745.923	2.4397	0.5767	0.93	84.07	0.2500	0.0000	85.00	8556.64	911.73	9.7803
224	22.300	809.00	56000.0	749.613	2.4543	0.5743	0.93	84.07	0.2500	0.0000	85.00	8631.02	919.46	9.7801
225	22.400	807.00	56000.0	753.323	2.4690	0.5718	0.92	84.08	0.2500	0.0000	85.00	8705.76	927.21	9.7798
226	22.500	805.00	56000.0	757.051	2.4839	0.5694	0.92	84.08	0.2500	0.0000	85.00	8780.88	935.01	9.7796
227	22.600	803.00	56000.0	760.799	2.4988	0.5669	0.92	84.08	0.2500	0.0000	85.00	8856.36	942.84	9.7794
228	22.700	801.00	56000.0	764.566	2.5139	0.5644	0.92	84.08	0.2500	0.0000	85.00	8932.23	950.70	9.7791
229	22.800	799.00	56000.0	768.354	2.5290	0.5618	0.92	84.08	0.2500	0.0000	85.00	9008.46	958.60	9.7789
230	22.900	797.00	56000.0	772.163	2.5443	0.5593	0.91	84.09	0.2500	0.0000	85.00	9085.08	966.54	9.7787
231	23.000	795.00	56000.0	775.992	2.5597	0.5567	0.91	84.09	0.2500	0.0000	85.00	9162.07	974.52	9.7784
232	23.100	793.00	56000.0	779.842	2.5753	0.5541	0.91	84.09	0.2500	0.0000	85.00	9239.45	982.53	9.7782
233	23.200	791.00	56000.0	783.714	2.5909	0.5515	0.91	84.09	0.2500	0.0000	85.00	9317.21	990.58	9.7780
234	23.300	789.00	56000.0	787.607	2.6067	0.5496	0.91	84.09	0.2500	0.0000	85.00	9395.36	998.67	9.7777
235	23.400	787.00	56000.0	791.517	2.6226	0.5486	0.90	84.10	0.2500	0.0000	85.00	9473.90	1006.79	9.7775
236	23.500	785.00	56000.0	795.442	2.6386	0.5476	0.90	84.10	0.2500	0.0000	85.00	9552.83	1014.95	9.7772
237	23.600	783.00	56000.0	799.384	2.6546	0.5466	0.90	84.10	0.2500	0.0000	85.00	9632.15	1023.15	9.7770
238	23.700	781.00	56000.0	803.341	2.6708	0.5456	0.90	84.10	0.2500	0.0000	85.00	9711.86	1031.38	9.7768
239	23.800	779.00	56000.0	807.316	2.6872	0.5446	0.90	84.10	0.2500	0.0000	85.00	9791.96	1039.66	9.7765
240	23.900	777.00	56000.0	811.307	2.7036	0.5435	0.89	84.11	0.2500	0.0000	85.00	9872.47	1047.97	9.7763
241	24.000	775.00	56000.0	815.316	2.7201	0.5425	0.89	84.11	0.2500	0.0000	85.00	9953.37	1056.32	9.7760
242	24.100	773.00	56000.0	819.342	2.7368	0.5415	0.89	84.11	0.2500	0.0000	85.00	10034.67	1064.71	9.7758
243	24.200	771.00	56000.0	823.386	2.7536	0.5404	0.89	84.11	0.2500	0.0000	85.00	10116.37	1073.14	9.7755
244	24.300	769.00	56000.0	827.448	2.7705	0.5393	0.89	84.11	0.2500	0.0000	85.00	10198.48	1081.61	9.7753
245	24.400	767.00	56000.0	831.528	2.7875	0.5383	0.88	84.12	0.2500	0.0000	85.00	10280.99	1090.11	9.7750
246	24.500	765.00	56000.0	835.628	2.8046	0.5372	0.88	84.12	0.2500	0.0000	85.00	10363.91	1098.66	9.7748
247	24.600	763.00	56000.0	839.746	2.8219	0.5361	0.88	84.12	0.2500	0.0000	85.00	10447.23	1107.24	9.7745
248	24.700	761.00	56000.0	843.883	2.8393	0.5350	0.88	84.12	0.2500	0.0000	85.00	10530.97	1115.86	9.7742
249	24.800	759.00	56000.0	848.040	2.8568	0.5339	0.88	84.12	0.2500	0.0000	85.00	10615.12	1124.53	9.7740
250	24.900	757.00	56000.0	852.217	2.8745	0.5328	0.87	84.13	0.2500	0.0000	85.00	10699.69	1133.23	9.7737
251	25.000	755.00	56000.0	856.414	2.8923	0.5317	0.87	84.13	0.2500	0.0000	85.00	10784.67	1141.97	9.7735
252	25.100	753.00	56000.0	860.632	2.9102	0.5306	0.87	84.13	0.2500	0.0000	85.00	10870.08	1150.76	9.7732
253	25.200	751.00	56000.0	864.871	2.9283	0.5295	0.87	84.13	0.2500	0.0000	85.00	10955.90	1159.58	9.7729
254	25.300	749.00	56000.0	869.132	2.9455	0.5284	0.87	84.13	0.2500	0.0000	85.00	11042.14	1168.44	9.7727
255	25.400	747.00	56000.0	873.424	2.9601	0.5275	0.87	84.13	0.2500	0.0000	85.00	11128.81	1177.35	9.7724
256	25.500	745.00	56000.0	877.742	2.9747	0.5266	0.86	84.14	0.2500	0.0000	85.00	11215.91	1186.29	9.7721
257	25.600	743.00	56000.0	882.086	2.9894	0.5257	0.86	84.14	0.2500	0.0000	85.00	11303.45	1195.28	9.7719
258	25.700	741.00	56000.0	886.458	3.0042	0.5247	0.86	84.14	0.2500	0.0000	85.00	11391.41	1204.31	9.7716
259	25.800	739.00	56000.0	890.856	3.0191	0.5238	0.86	84.14	0.2500	0.0000	85.00	11479.81	1213.38	9.7713
260	25.900	737.00	56000.0	895.282	3.0341	0.5229	0.86	84.14	0.2500	0.0000	85.00	11568.65	1222.49	9.7711
261	26.000	735.00	56000.0	899.736	3.0492	0.5219	0.85	84.15	0.2500	0.0000	85.00	11657.93	1231.65	9.7708
262	26.100	733.00	56000.0	904.217	3.0644	0.5210	0.85	84.15	0.2500	0.0000	85.00	11747.66	1240.85	9.7705
263	26.200	731.00	56000.0	908.726	3.0797	0.5200	0.85	84.15	0.2500	0.0000	85.00	11837.84	1250.09	9.7702
264	26.300	729.00	56000.0	913.264	3.0951	0.5191	0.85	84.15	0.2500	0.0000	85.00	11928.46	1259.37	9.7699
265	26.400	727.00	56000.0	917.830	3.1106	0.5181	0.85	84.15	0.2500	0.0000	85.00	12019.54	1268.70	9.7697
266	26.500	725.00	56000.0	922.424	3.1261	0.5171	0.84	84.16	0.2500	0.0000	85.00	12111.07	1278.07	9.7694
267	26.600	723.00	56000.0	927.048	3.1418	0.5161	0.84	84.16	0.2500	0.0000	85.00	12203.07	1287.48	9.7691
268	26.700	721.00	56000.0	931.701	3.1576	0.5152	0.84	84.16	0.2500	0.0000	85.00	12295.52	1296.94	9.7688
269	26.800	719.00	56000.0	936.383	3.1734	0.5142	0.84	84.16	0.2500	0.0000	85.00	12388.44	1306.45	9.7685
270	26.900	717.00	56000.0	941.095	3.1894	0.5132	0.84	84.16	0.2500	0.0000	85.00	12481.83	1315.99	9.7683
271	27.000	715.00	56000.0	945.837	3.2055	0.5122	0.84	84.16	0.2500	0.0000	85.00	12575.68	1325.59	9.7680
272	27.100	713.00	56000.0	950.609	3.2216	0.5111	0.83	84.17	0.2500	0.0000	85.00	12670.02	1335.23	9.7677
273	27.200	711.00	56000.0	955.411	3.2379	0.5101	0.83	84.17	0.2500	0.0000	85.00	12764.82	1344.91	9.7674
274	27.300	709.00	56000.0	960.244	3.2543	0.5091	0.83	84.17	0.2500	0.0000	85.00	12860.11	1354.64	9.7671
275	27.400	707.00	56000.0	965.107	3.2708	0.5081	0.83	84.17	0.2500	0.0000	85.00	12955.88	1364.42	9.7668
276	27.500	705.00	56000.0	970.002	3.2874	0.5070	0.83	84.17	0.2500	0.0000	85.00	13052.13	1374.24	9.7665
277	27.600	703.00	56000.0	974.928	3.3041	0.5060	0.82	84.18	0.2500	0.0000	85.00	13148.88	1384.11	9.7662
278	27.700	701.00	56000.0	979.885	3.3209	0.5049	0.82	84.18	0.2500	0.0000	85.00	13246.11	1394.03	9.7659
279	27.800	699.00	56000.0	984.875	3.3378	0.5039	0.82	84.18	0.2500	0.0000	85.00	13343.85	1404.00	9.7656
280	27.900	697.00	56000.0	989.896	3.3548	0.5028	0.82	84.18	0.2500	0.0000	85.00	13442.07	1414.01	9.7653
281	28.000	695.00	56000.0	994.950	3.3719	0.5018	0.82	84.18	0.2500	0.0000	85.00	13540.81	1424.07	9.7650
282	28.100	693.00	56000.0	1000.036	3.3892	0.5007	0.82	84.18	0.2500	0.0000	85.00	13640.04	1434.18	9.7647
283	28.200	691.00	56000.0	1005.155	3.4065	0.4999	0.81	84.19	0.2500	0.0000	85.00	13739.78	1444.34	9.7644
284	28.300	689.00	56000.0	1010.304	3.4240	0.4995	0.81	84.19	0.2500	0.0000	85.00	13840.04	1454.54	9.7641
285	28.400	687.00	56000.0	1015.484	3.4415	0.4992	0.81	84.19	0.2500	0.0000	85.00	13940.81	1464.80	9.7638
286	28.500	685.00	56000.0	1020.694	3.4592	0.4989	0.81	84.19	0.2500	0.0000	85.00	14042.09	1475.10	9.7635
287	28.600	683.00	56000.0	1025.934	3.4769	0.4985	0.81	84.19	0.2500	0.0000	85.00	14143.90	1485.46	9.7632
288	28.700	681.00	56000.0	1031.206	3.4948	0.4982	0.81	84.19	0.2500	0.0000	85.00	14246.23	1495.87	9.7628
289	28.800	679.00	56000.0	1036.509	3.5128	0.4978	0.80	84.20	0.2500	0.0000	85.00	14349.08	1506.32	9.7625
290	28.900	677.00	56000.0	1041.844	3.5308	0.4975	0.80	84.20	0.2500	0.0000	85.00	14452.47	1516.83	9.7622
291	29.000	675.00	56000.0	1047.210	3.5490	0.4971	0.80	84.20	0.2500	0.0000	85.00	14556.39	1527.39	9.7619
292	29.100	673.00	56000.0	1052.609	3.5673	0.4968	0.80	84.20	0.2500	0.0000	85.00	14660.84	1538.00	9.7616
293	29.200	671.00	56000.0	1058.039	3.5857	0.4964	0.80	84.20	0.2500	0.0000	85.00	14765.83	1548.66	9.7612
294	29.300	669.00	56000.0	1063.502	3.6042	0.4961	0.80	84.20	0.2500	0.0000	85.00	14871.37	1559.37	9.7609
295	29.400	667.00	56000.0	1068.998	3.6229	0.4957	0.79	84.21	0.2500	0.0000	85.00	14977.45	1570.13	9.7606
296	29.500	665.00	56000.0	1074.527	3.6416	0.4954	0.79	84.21	0.2500	0.0000	85.00	15084.07	1580.95	9.7603
297	29.600	663.00	56000.0	1080.090	3.6605	0.4950	0.79	84.21	0.2500	0.0000	85.00	15191.25	1591.82	9.7599
298	29.700	661.00	56000.0	1085.686	3.6794	0.4946	0.79	84.21	0.2500	0.0000	85.00	15298.99	1602.74	9.7596
299	29.800	659.00	56000.0	1091.315	3.6985	0.4943	0.79	84.21	0.2500	0.0000	85.00	15407.29	1613.72	9.7593
300	29.900	657.00	56000.0	1096.979	3.7177	0.4939	0.79	84.21	0.2500	0.0000	85.00	15516.14	1624.75	9.7590
301	30.000	655.00	56000.0	1102.677	3.7370	0.4935	0.78	84.22	0.2500	0.0000	85.00	15625.57	1635.84	9.7586
